Time,Temperature,Heat Flow
[s],[K],[W/g]
1200.3498,308.35,9.84E-03
1276.9074,308.45,4.70E-03
1294.5276,308.55,4.30E-03
1306.9092,308.65,4.74E-03
1316.217,308.75,2.04E-03
1324.1088,308.85,1.26E-03
1331.067,308.95,-7.13E-05
1337.1,309.05,1.05E-03
1342.6254,309.15,-1.94E-04
1347.6804,309.25,-6.84E-04
1352.3556,309.35,-2.41E-03
1356.7548,309.45,-2.46E-03
1360.9926,309.55,-4.05E-03
1364.9052,309.65,-4.45E-03
1368.5088,309.75,-5.11E-03
1372.0098,309.85,-5.38E-03
1375.2912,309.95,-5.21E-03
1378.5012,310.05,-5.53E-03
1381.56,310.15,-5.14E-03
1384.5246,310.25,-6.80E-03
1387.4178,310.35,-8.13E-03
1390.23,310.45,-8.14E-03
1392.9924,310.55,-9.62E-03
1395.6408,310.65,-7.60E-03
1398.2064,310.75,-9.93E-03
1400.6904,310.85,-9.34E-03
1403.151,310.95,-9.66E-03
1405.5162,311.05,-1.14E-02
1407.8064,311.15,-1.05E-02
1410.1026,311.25,-1.15E-02
1412.3226,311.35,-1.15E-02
1414.4922,311.45,-1.15E-02
1416.597,311.55,-1.22E-02
1418.6814,311.65,-1.40E-02
1420.761,311.75,-1.33E-02
1422.7686,311.85,-1.63E-02
1424.7576,311.95,-1.36E-02
1426.7022,312.05,-1.57E-02
1428.5868,312.15,-1.70E-02
1430.4984,312.25,-1.81E-02
1432.3302,312.35,-1.80E-02
1434.1464,312.45,-1.82E-02
1435.9524,312.55,-1.76E-02
1437.7188,312.65,-1.81E-02
1439.4678,312.75,-1.80E-02
1441.2204,312.85,-2.09E-02
1442.9298,312.95,-1.38E-02
1444.6278,313.05,-1.94E-02
1446.2898,313.15,-1.99E-02
1447.9086,313.25,-2.18E-02
1449.5088,313.35,-2.21E-02
1451.1408,313.45,-2.29E-02
1452.7068,313.55,-2.36E-02
1454.2806,313.65,-2.40E-02
1455.8478,313.75,-2.40E-02
1457.3868,313.85,-2.47E-02
1458.9306,313.95,-2.35E-02
1460.457,314.05,-2.37E-02
1461.957,314.15,-2.56E-02
1463.4312,314.25,-2.53E-02
1464.9084,314.35,-2.53E-02
1466.349,314.45,-2.60E-02
1467.783,314.55,-2.49E-02
1469.2182,314.65,-2.65E-02
1470.645,314.75,-2.84E-02
1472.0502,314.85,-2.95E-02
1473.4428,314.95,-2.96E-02
1474.8222,315.05,-2.89E-02
1476.1974,315.15,-3.03E-02
1477.5666,315.25,-2.91E-02
1478.9196,315.35,-2.83E-02
1480.2576,315.45,-3.11E-02
1481.5776,315.55,-3.13E-02
1482.879,315.65,-3.19E-02
1484.1888,315.75,-2.95E-02
1485.4896,315.85,-3.18E-02
1486.7892,315.95,-3.43E-02
1488.0648,316.05,-3.36E-02
1489.32,316.15,-3.41E-02
1490.5866,316.25,-3.42E-02
1491.8484,316.35,-3.30E-02
1493.0808,316.45,-3.50E-02
1494.3156,316.55,-3.55E-02
1495.5492,316.65,-3.51E-02
1496.7714,316.75,-3.41E-02
1497.999,316.85,-3.48E-02
1499.187,316.95,-3.51E-02
1500.3894,317.05,-3.70E-02
1501.584,317.15,-3.86E-02
1502.7618,317.25,-3.78E-02
1503.9276,317.35,-3.70E-02
1505.085,317.45,-3.78E-02
1506.2448,317.55,-3.91E-02
1507.4088,317.65,-3.98E-02
1508.5512,317.75,-4.04E-02
1509.6918,317.85,-3.94E-02
1510.809,317.95,-3.92E-02
1511.94,318.05,-4.08E-02
1513.065,318.15,-4.26E-02
1514.1732,318.25,-4.13E-02
1515.288,318.35,-4.10E-02
1516.4016,318.45,-4.37E-02
1517.511,318.55,-4.36E-02
1518.6048,318.65,-4.33E-02
1519.6902,318.75,-4.32E-02
1520.7948,318.85,-4.37E-02
1521.879,318.95,-4.46E-02
1522.9644,319.05,-4.51E-02
1524.0504,319.15,-4.58E-02
1525.1226,319.25,-4.79E-02
1526.1894,319.35,-4.83E-02
1527.2628,319.45,-4.80E-02
1528.3146,319.55,-4.78E-02
1529.3634,319.65,-4.81E-02
1530.4212,319.75,-4.95E-02
1531.4784,319.85,-4.85E-02
1532.5062,319.95,-4.89E-02
1533.5298,320.05,-4.98E-02
1534.557,320.15,-4.99E-02
1535.5728,320.25,-5.12E-02
1536.591,320.35,-5.25E-02
1537.5978,320.45,-5.25E-02
1538.6052,320.55,-5.25E-02
1539.6108,320.65,-5.34E-02
1540.6224,320.75,-5.24E-02
1541.625,320.85,-5.13E-02
1542.6306,320.95,-5.24E-02
1543.6128,321.05,-5.41E-02
1544.6058,321.15,-5.34E-02
1545.6036,321.25,-5.43E-02
1546.5888,321.35,-5.60E-02
1547.5752,321.45,-5.52E-02
1548.5532,321.55,-5.62E-02
1549.5276,321.65,-5.64E-02
1550.5116,321.75,-5.79E-02
1551.4824,321.85,-6.04E-02
1552.443,321.95,-5.81E-02
1553.4018,322.05,-5.73E-02
1554.351,322.15,-5.79E-02
1555.293,322.25,-5.89E-02
1556.2524,322.35,-5.99E-02
1557.2076,322.45,-5.85E-02
1558.152,322.55,-5.92E-02
1559.0892,322.65,-6.18E-02
1560.036,322.75,-6.09E-02
1560.975,322.85,-6.23E-02
1561.914,322.95,-6.29E-02
1562.8368,323.05,-6.25E-02
1563.7632,323.15,-6.30E-02
1564.6848,323.25,-6.45E-02
1565.6058,323.35,-6.45E-02
1566.5238,323.45,-6.47E-02
1567.449,323.55,-6.55E-02
1568.3562,323.65,-6.49E-02
1569.2604,323.75,-6.62E-02
1570.164,323.85,-6.64E-02
1571.0736,323.95,-6.83E-02
1571.9712,324.05,-6.60E-02
1572.8754,324.15,-6.66E-02
1573.773,324.25,-6.71E-02
1574.6682,324.35,-6.82E-02
1575.5676,324.45,-6.91E-02
1576.4526,324.55,-6.92E-02
1577.3436,324.65,-6.96E-02
1578.2304,324.75,-6.86E-02
1579.1124,324.85,-7.08E-02
1579.9914,324.95,-7.07E-02
1580.8776,325.05,-7.12E-02
1581.7524,325.15,-7.20E-02
1582.6284,325.25,-7.20E-02
1583.499,325.35,-7.18E-02
1584.3672,325.45,-7.18E-02
1585.2246,325.55,-7.29E-02
1586.0844,325.65,-7.32E-02
1586.9406,325.75,-7.35E-02
1587.8004,325.85,-7.44E-02
1588.659,325.95,-7.45E-02
1589.5188,326.05,-7.47E-02
1590.3744,326.15,-7.48E-02
1591.2336,326.25,-7.63E-02
1592.079,326.35,-7.52E-02
1592.928,326.45,-7.59E-02
1593.777,326.55,-7.55E-02
1594.6188,326.65,-7.52E-02
1595.4552,326.75,-7.58E-02
1596.2964,326.85,-7.69E-02
1597.1424,326.95,-7.77E-02
1597.9818,327.05,-7.81E-02
1598.814,327.15,-8.01E-02
1599.654,327.25,-7.94E-02
1600.4856,327.35,-7.76E-02
1601.3142,327.45,-7.81E-02
1602.1452,327.55,-7.87E-02
1602.9702,327.65,-7.88E-02
1603.7934,327.75,-7.95E-02
1604.6202,327.85,-8.13E-02
1605.4416,327.95,-8.33E-02
1606.2606,328.05,-8.32E-02
1607.0778,328.15,-8.49E-02
1607.8986,328.25,-8.41E-02
1608.7128,328.35,-8.52E-02
1609.5228,328.45,-8.51E-02
1610.3346,328.55,-8.49E-02
1611.1536,328.65,-8.51E-02
1611.9522,328.75,-8.56E-02
1612.7592,328.85,-8.70E-02
1613.5668,328.95,-8.71E-02
1614.372,329.05,-8.66E-02
1615.179,329.15,-8.67E-02
1615.9794,329.25,-8.67E-02
1616.7822,329.35,-8.75E-02
1617.582,329.45,-8.82E-02
1618.3824,329.55,-8.90E-02
1619.178,329.65,-8.75E-02
1619.9754,329.75,-8.82E-02
1620.7692,329.85,-8.91E-02
1621.5642,329.95,-8.92E-02
1622.3586,330.05,-8.95E-02
1623.147,330.15,-9.06E-02
1623.936,330.25,-9.13E-02
1624.7322,330.35,-9.32E-02
1625.5116,330.45,-9.34E-02
1626.2928,330.55,-9.27E-02
1627.0764,330.65,-9.19E-02
1627.851,330.75,-9.19E-02
1628.6286,330.85,-9.21E-02
1629.4032,330.95,-9.32E-02
1630.1784,331.05,-9.43E-02
1630.9512,331.15,-9.50E-02
1631.7288,331.25,-9.68E-02
1632.4968,331.35,-9.85E-02
1633.266,331.45,-9.75E-02
1634.0322,331.55,-9.70E-02
1634.7936,331.65,-9.66E-02
1635.558,331.75,-9.59E-02
1636.3188,331.85,-9.74E-02
1637.0766,331.95,-9.75E-02
1637.8374,332.05,-9.82E-02
1638.5988,332.15,-9.85E-02
1639.3644,332.25,-0.10087
1640.1168,332.35,-0.10056
1640.877,332.45,-0.10005
1641.6318,332.55,-0.10045
1642.3872,332.65,-0.1023
1643.1366,332.75,-0.10285
1643.8848,332.85,-0.10245
1644.6312,332.95,-0.10249
1645.3836,333.05,-0.10218
1646.1336,333.15,-0.10284
1646.8848,333.25,-0.10474
1647.636,333.35,-0.10599
1648.386,333.45,-0.10807
1649.1294,333.55,-0.10715
1649.8764,333.65,-0.10562
1650.6228,333.75,-0.10494
1651.3632,333.85,-0.10439
1652.0952,333.95,-0.10573
1652.8362,334.05,-0.10735
1653.5742,334.15,-0.10896
1654.305,334.25,-0.10948
1655.0364,334.35,-0.11024
1655.7678,334.45,-0.11033
1656.4998,334.55,-0.11034
1657.233,334.65,-0.11107
1657.9626,334.75,-0.11164
1658.691,334.85,-0.11045
1659.4164,334.95,-0.11102
1660.1358,335.05,-0.11349
1660.857,335.15,-0.11269
1661.5788,335.25,-0.11376
1662.2982,335.35,-0.11383
1663.0248,335.45,-0.11437
1663.7496,335.55,-0.11604
1664.469,335.65,-0.11618
1665.1926,335.75,-0.11658
1665.912,335.85,-0.11715
1666.632,335.95,-0.11808
1667.3466,336.05,-0.11768
1668.0672,336.15,-0.11795
1668.7836,336.25,-0.11743
1669.4952,336.35,-0.11727
1670.2062,336.45,-0.11668
1670.9148,336.55,-0.1183
1671.6264,336.65,-0.11842
1672.3368,336.75,-0.11922
1673.049,336.85,-0.11939
1673.7528,336.95,-0.11983
1674.468,337.05,-0.12053
1675.1706,337.15,-0.12183
1675.8696,337.25,-0.12445
1676.5734,337.35,-0.12384
1677.2802,337.45,-0.12307
1677.9756,337.55,-0.12263
1678.6722,337.65,-0.12398
1679.3754,337.75,-0.12469
1680.078,337.85,-0.12498
1680.7758,337.95,-0.12652
1681.4718,338.05,-0.12769
1682.1708,338.15,-0.12707
1682.8662,338.25,-0.1265
1683.5634,338.35,-0.12808
1684.2552,338.45,-0.12868
1684.9494,338.55,-0.12951
1685.6442,338.65,-0.13018
1686.3396,338.75,-0.13032
1687.0284,338.85,-0.13126
1687.722,338.95,-0.13137
1688.4132,339.05,-0.13108
1689.1014,339.15,-0.13113
1689.7878,339.25,-0.13226
1690.4802,339.35,-0.13254
1691.1654,339.45,-0.13231
1691.8548,339.55,-0.1335
1692.5382,339.65,-0.13563
1693.2198,339.75,-0.13489
1693.9056,339.85,-0.13428
1694.5848,339.95,-0.13464
1695.2688,340.05,-0.13643
1695.951,340.15,-0.13639
1696.632,340.25,-0.13591
1697.3124,340.35,-0.13559
1697.9922,340.45,-0.13579
1698.6696,340.55,-0.13602
1699.3482,340.65,-0.13641
1700.0244,340.75,-0.13791
1700.7018,340.85,-0.13834
1701.3762,340.95,-0.13995
1702.0488,341.05,-0.14159
1702.7208,341.15,-0.14077
1703.3922,341.25,-0.14085
1704.0648,341.35,-0.14087
1704.7344,341.45,-0.14074
1705.4088,341.55,-0.14098
1706.0778,341.65,-0.14228
1706.7516,341.75,-0.14101
1707.423,341.85,-0.14243
1708.0878,341.95,-0.1428
1708.7502,342.05,-0.14277
1709.4162,342.15,-0.14293
1710.0846,342.25,-0.14384
1710.7524,342.35,-0.14383
1711.4178,342.45,-0.14382
1712.0784,342.55,-0.14421
1712.7456,342.65,-0.14513
1713.405,342.75,-0.14573
1714.071,342.85,-0.14511
1714.7328,342.95,-0.14712
1715.3928,343.05,-0.14798
1716.0558,343.15,-0.14802
1716.7134,343.25,-0.14834
1717.3734,343.35,-0.14864
1718.0328,343.45,-0.14865
1718.6952,343.55,-0.1484
1719.3546,343.65,-0.14929
1720.014,343.75,-0.14977
1720.6752,343.85,-0.15016
1721.3388,343.95,-0.15037
1721.997,344.05,-0.15131
1722.6498,344.15,-0.15211
1723.3038,344.25,-0.15277
1723.959,344.35,-0.15249
1724.6124,344.45,-0.15235
1725.2652,344.55,-0.15408
1725.9126,344.65,-0.15467
1726.5642,344.75,-0.15556
1727.2158,344.85,-0.15466
1727.8674,344.95,-0.15447
1728.5154,345.05,-0.1541
1729.1688,345.15,-0.15458
1729.8198,345.25,-0.15462
1730.4648,345.35,-0.15666
1731.1104,345.45,-0.15774
1731.7536,345.55,-0.15579
1732.3962,345.65,-0.15548
1733.0388,345.75,-0.15662
1733.6808,345.85,-0.15723
1734.3276,345.95,-0.15971
1734.975,346.05,-0.15907
1735.6206,346.15,-0.15835
1736.2638,346.25,-0.15921
1736.9052,346.35,-0.15854
1737.5442,346.45,-0.15858
1738.1898,346.55,-0.15868
1738.8354,346.65,-0.1591
1739.4744,346.75,-0.16098
1740.114,346.85,-0.16206
1740.7512,346.95,-0.16363
1741.3896,347.05,-0.16388
1742.0244,347.15,-0.16335
1742.6622,347.25,-0.16362
1743.2982,347.35,-0.16509
1743.9384,347.45,-0.16675
1744.5774,347.55,-0.16611
1745.217,347.65,-0.16587
1745.856,347.75,-0.16535
1746.4866,347.85,-0.16563
1747.1196,347.95,-0.16532
1747.7538,348.05,-0.16682
1748.3802,348.15,-0.16746
1749.0114,348.25,-0.1685
1749.645,348.35,-0.16878
1750.2786,348.45,-0.16838
1750.9086,348.55,-0.16889
1751.5392,348.65,-0.16922
1752.1692,348.75,-0.16935
1752.798,348.85,-0.17009
1753.4328,348.95,-0.1696
1754.0622,349.05,-0.1702
1754.6916,349.15,-0.17122
1755.315,349.25,-0.17107
1755.9486,349.35,-0.17128
1756.5726,349.45,-0.17286
1757.1966,349.55,-0.17483
1757.8236,349.65,-0.17588
1758.4494,349.75,-0.17621
1759.0764,349.85,-0.17568
1759.7058,349.95,-0.17635
1760.3292,350.05,-0.17763
1760.9556,350.15,-0.17626
1761.5796,350.25,-0.1763
1762.2042,350.35,-0.17653
1762.8294,350.45,-0.17798
1763.4528,350.55,-0.17873
1764.0774,350.65,-0.17834
1764.7014,350.75,-0.17819
1765.3296,350.85,-0.17799
1765.9512,350.95,-0.17874
1766.5716,351.05,-0.17894
1767.1962,351.15,-0.17986
1767.8208,351.25,-0.18149
1768.4382,351.35,-0.18261
1769.0562,351.45,-0.18243
1769.6754,351.55,-0.18326
1770.291,351.65,-0.18297
1770.9048,351.75,-0.18273
1771.5228,351.85,-0.18251
1772.1354,351.95,-0.18336
1772.748,352.05,-0.18404
1773.3624,352.15,-0.18385
1773.9786,352.25,-0.18429
1774.5894,352.35,-0.1841
1775.202,352.45,-0.18508
1775.8092,352.55,-0.18662
1776.423,352.65,-0.18815
1777.029,352.75,-0.18939
1777.6362,352.85,-0.18934
1778.2428,352.95,-0.18819
1778.8518,353.05,-0.18912
1779.4614,353.15,-0.19038
1780.0698,353.25,-0.19083
1780.68,353.35,-0.19068
1781.2902,353.45,-0.19084
1781.8992,353.55,-0.19118
1782.5088,353.65,-0.19226
1783.1214,353.75,-0.19197
1783.7316,353.85,-0.19237
1784.3424,353.95,-0.19324
1784.9508,354.05,-0.1941
1785.561,354.15,-0.19434
1786.1688,354.25,-0.1947
1786.7784,354.35,-0.19628
1787.385,354.45,-0.19749
1787.991,354.55,-0.19589
1788.5928,354.65,-0.19602
1789.191,354.75,-0.19644
1789.797,354.85,-0.19614
1790.4018,354.95,-0.19717
1791.0066,355.05,-0.1991
1791.6078,355.15,-0.19927
1792.2078,355.25,-0.19884
1792.8084,355.35,-0.1993
1793.4084,355.45,-0.19968
1794.0102,355.55,-0.19974
1794.612,355.65,-0.20007
1795.212,355.75,-0.20183
1795.8102,355.85,-0.20358
1796.4054,355.95,-0.204
1797.003,356.05,-0.20366
1797.6036,356.15,-0.20261
1798.2012,356.25,-0.20361
1798.7988,356.35,-0.20466
1799.3928,356.45,-0.20416
1799.988,356.55,-0.20563
1800.5856,356.65,-0.20573
1801.185,356.75,-0.20542
1801.785,356.85,-0.20582
1802.379,356.95,-0.20649
1802.9754,357.05,-0.208
1803.5712,357.15,-0.20896
1804.1664,357.25,-0.20965
1804.764,357.35,-0.21019
1805.3598,357.45,-0.21112
1805.9556,357.55,-0.21147
1806.5472,357.65,-0.21167
1807.1382,357.75,-0.21174
1807.7304,357.85,-0.21147
1808.3202,357.95,-0.21275
1808.91,358.05,-0.21377
1809.4998,358.15,-0.21442
1810.0854,358.25,-0.2148
1810.6716,358.35,-0.21616
1811.2584,358.45,-0.21715
1811.8458,358.55,-0.21799
1812.4374,358.65,-0.21859
1813.0278,358.75,-0.21875
1813.6152,358.85,-0.21856
1814.202,358.95,-0.21857
1814.7924,359.05,-0.21865
1815.3828,359.15,-0.22
1815.9636,359.25,-0.22145
1816.551,359.35,-0.22167
1817.1408,359.45,-0.22063
1817.7264,359.55,-0.21998
1818.3096,359.65,-0.22114
1818.8922,359.75,-0.22352
1819.4772,359.85,-0.22381
1820.0628,359.95,-0.22274
1820.6484,360.05,-0.22289
1821.2364,360.15,-0.22447
1821.8208,360.25,-0.22608
1822.4052,360.35,-0.22706
1822.9878,360.45,-0.22759
1823.5716,360.55,-0.22789
1824.1542,360.65,-0.22902
1824.7374,360.75,-0.2287
1825.317,360.85,-0.22842
1825.8966,360.95,-0.22788
1826.4774,361.05,-0.22874
1827.0594,361.15,-0.23097
1827.6408,361.25,-0.23083
1828.2216,361.35,-0.23073
1828.8054,361.45,-0.2313
1829.3832,361.55,-0.23124
1829.955,361.65,-0.23208
1830.5298,361.75,-0.2334
1831.1064,361.85,-0.2344
1831.6812,361.95,-0.23401
1832.2566,362.05,-0.23445
1832.8284,362.15,-0.23454
1833.4032,362.25,-0.23563
1833.9768,362.35,-0.23601
1834.5522,362.45,-0.23646
1835.1252,362.55,-0.23713
1835.703,362.65,-0.23648
1836.2772,362.75,-0.23814
1836.8496,362.85,-0.24009
1837.4208,362.95,-0.23983
1837.9908,363.05,-0.24045
1838.565,363.15,-0.24059
1839.1362,363.25,-0.24055
1839.705,363.35,-0.24109
1840.2738,363.45,-0.24181
1840.8408,363.55,-0.24281
1841.4072,363.65,-0.24303
1841.9748,363.75,-0.24277
1842.5448,363.85,-0.24351
1843.1166,363.95,-0.24465
1843.6866,364.05,-0.24551
1844.2584,364.15,-0.24566
1844.8236,364.25,-0.24589
1845.393,364.35,-0.24614
1845.9588,364.45,-0.24723
1846.5246,364.55,-0.24929
1847.0934,364.65,-0.2505
1847.661,364.75,-0.24955
1848.225,364.85,-0.24956
1848.789,364.95,-0.24985
1849.3566,365.05,-0.25018
1849.9254,365.15,-0.25069
1850.4924,365.25,-0.25082
1851.0582,365.35,-0.25103
1851.6234,365.45,-0.25153
1852.1898,365.55,-0.25244
1852.7538,365.65,-0.2526
1853.3196,365.75,-0.25164
1853.8872,365.85,-0.25236
1854.4506,365.95,-0.25373
1855.014,366.05,-0.25374
1855.5768,366.15,-0.25293
1856.1402,366.25,-0.25318
1856.6994,366.35,-0.25557
1857.2646,366.45,-0.25753
1857.8262,366.55,-0.25657
1858.3884,366.65,-0.25626
1858.9524,366.75,-0.25755
1859.5134,366.85,-0.25875
1860.0702,366.95,-0.25898
1860.6306,367.05,-0.2599
1861.1928,367.15,-0.26101
1861.752,367.25,-0.26196
1862.307,367.35,-0.26335
1862.8632,367.45,-0.26308
1863.4236,367.55,-0.26277
1863.9798,367.65,-0.26279
1864.539,367.75,-0.2628
1865.0964,367.85,-0.26462
1865.6562,367.95,-0.26579
1866.2118,368.05,-0.26629
1866.768,368.15,-0.26632
1867.3272,368.25,-0.2656
1867.8846,368.35,-0.26528
1868.439,368.45,-0.26611
1868.9964,368.55,-0.26691
1869.555,368.65,-0.26734
1870.1106,368.75,-0.26836
1870.6668,368.85,-0.26883
1871.2194,368.95,-0.26801
1871.7768,369.05,-0.2681
1872.3318,369.15,-0.26831
1872.8874,369.25,-0.26933
1873.4406,369.35,-0.27038
1873.9962,369.45,-0.2729
1874.5524,369.55,-0.2732
1875.1098,369.65,-0.27222
1875.666,369.75,-0.27235
1876.2228,369.85,-0.27268
1876.779,369.95,-0.27317
1877.3316,370.05,-0.27384
1877.8842,370.15,-0.27413
1878.4374,370.25,-0.27561
1878.9924,370.35,-0.27734
1879.5438,370.45,-0.27709
1880.0964,370.55,-0.2761
1880.6478,370.65,-0.27567
1881.2016,370.75,-0.27548
1881.7536,370.85,-0.27679
1882.3026,370.95,-0.27807
1882.854,371.05,-0.27839
1883.406,371.15,-0.27748
1883.9568,371.25,-0.27698
1884.5058,371.35,-0.27832
1885.0566,371.45,-0.27878
1885.6128,371.55,-0.27877
1886.1642,371.65,-0.28066
1886.7114,371.75,-0.2813
1887.261,371.85,-0.28114
1887.81,371.95,-0.2814
1888.3572,372.05,-0.28369
1888.902,372.15,-0.28475
1889.4492,372.25,-0.28563
1889.9982,372.35,-0.28725
1890.5454,372.45,-0.28737
1891.092,372.55,-0.28689
1891.6362,372.65,-0.2875
1892.1834,372.75,-0.28805
1892.7306,372.85,-0.28805
1893.279,372.95,-0.28968
1893.8226,373.05,-0.29002
1894.371,373.15,-0.29074
1894.92,373.25,-0.28981
1895.4654,373.35,-0.28949
1896.012,373.45,-0.29073
1896.5604,373.55,-0.29157
1897.1082,373.65,-0.29252
1897.653,373.75,-0.2937
1898.193,373.85,-0.29447
1898.7336,373.95,-0.29509
1899.2778,374.05,-0.29468
1899.8208,374.15,-0.29537
1900.3656,374.25,-0.2959
1900.9092,374.35,-0.29662
1901.4522,374.45,-0.29786
1901.9946,374.55,-0.29888
1902.537,374.65,-0.29915
1903.0818,374.75,-0.29857
1903.626,374.85,-0.29818
1904.1714,374.95,-0.29908
1904.7144,375.05,-0.29991
1905.2538,375.15,-0.30031
1905.7938,375.25,-0.30087
1906.3386,375.35,-0.3003
1906.8786,375.45,-0.30011
1907.4192,375.55,-0.3009
1907.964,375.65,-0.30113
1908.5064,375.75,-0.3015
1909.0464,375.85,-0.30295
1909.5852,375.95,-0.3037
1910.124,376.05,-0.30472
1910.6664,376.15,-0.30558
1911.2112,376.25,-0.30589
1911.7536,376.35,-0.30591
1912.2954,376.45,-0.30519
1912.836,376.55,-0.3066
1913.3754,376.65,-0.30984
1913.9172,376.75,-0.31073
1914.4614,376.85,-0.30956
1915.0026,376.95,-0.30941
1915.5426,377.05,-0.31025
1916.0778,377.15,-0.31087
1916.6154,377.25,-0.31146
1917.1542,377.35,-0.31206
1917.6954,377.45,-0.31174
1918.2348,377.55,-0.31146
1918.773,377.65,-0.31197
1919.3124,377.75,-0.31304
1919.8482,377.85,-0.31468
1920.384,377.95,-0.31551
1920.9228,378.05,-0.31511
1921.4616,378.15,-0.31556
1921.998,378.25,-0.31517
1922.535,378.35,-0.31607
1923.0726,378.45,-0.31742
1923.6084,378.55,-0.31824
1924.1436,378.65,-0.31847
1924.68,378.75,-0.31808
1925.214,378.85,-0.31848
1925.7516,378.95,-0.31884
1926.288,379.05,-0.31749
1926.8214,379.15,-0.32024
1927.356,379.25,-0.32089
1927.8912,379.35,-0.32006
1928.4288,379.45,-0.32027
1928.9658,379.55,-0.32119
1929.501,379.65,-0.32199
1930.0386,379.75,-0.3225
1930.5732,379.85,-0.32396
1931.1078,379.95,-0.32516
1931.6418,380.05,-0.32618
1932.1776,380.15,-0.32684
1932.7134,380.25,-0.32647
1933.2474,380.35,-0.327
1933.7814,380.45,-0.32809
1934.3166,380.55,-0.32826
1934.8512,380.65,-0.32826
1935.3882,380.75,-0.32859
1935.9234,380.85,-0.33
1936.4628,380.95,-0.33114
1936.9932,381.05,-0.33081
1937.5278,381.15,-0.32919
1938.0636,381.25,-0.33123
1938.597,381.35,-0.33404
1939.131,381.45,-0.33429
1939.6656,381.55,-0.33467
1940.1984,381.65,-0.33443
1940.7288,381.75,-0.33427
1941.2604,381.85,-0.33451
1941.7914,381.95,-0.33458
1942.3212,382.05,-0.33581
1942.8528,382.15,-0.33647
1943.3874,382.25,-0.33718
1943.9196,382.35,-0.3388
1944.4494,382.45,-0.33965
1944.9822,382.55,-0.34021
1945.5144,382.65,-0.34004
1946.0472,382.75,-0.33965
1946.577,382.85,-0.33969
1947.1062,382.95,-0.34046
1947.6342,383.05,-0.34165
1948.1628,383.15,-0.34273
1948.6908,383.25,-0.34293
1949.2188,383.35,-0.34237
1949.754,383.45,-0.34244
1950.2844,383.55,-0.3421
1950.8124,383.65,-0.34167
1951.3422,383.75,-0.34186
1951.8726,383.85,-0.34357
1952.4018,383.95,-0.3456
1952.9316,384.05,-0.34655
1953.4626,384.15,-0.34722
1953.993,384.25,-0.34822
1954.5246,384.35,-0.34861
1955.055,384.45,-0.34885
1955.5818,384.55,-0.34902
1956.108,384.65,-0.34939
1956.6372,384.75,-0.34829
1957.167,384.85,-0.34868
1957.6938,384.95,-0.35117
1958.223,385.05,-0.35122
1958.7516,385.15,-0.35128
1959.2802,385.25,-0.3515
1959.8112,385.35,-0.35177
1960.341,385.45,-0.35173
1960.8672,385.55,-0.35235
1961.3946,385.65,-0.35337
1961.922,385.75,-0.35413
1962.4476,385.85,-0.35492
1962.9762,385.95,-0.356
1963.5048,386.05,-0.35803
1964.0316,386.15,-0.35847
1964.5572,386.25,-0.35812
1965.0834,386.35,-0.35786
1965.6096,386.45,-0.35855
1966.1352,386.55,-0.3597
1966.662,386.65,-0.35977
1967.1912,386.75,-0.35922
1967.718,386.85,-0.35945
1968.2472,386.95,-0.36026
1968.777,387.05,-0.3609
1969.3038,387.15,-0.36159
1969.8306,387.25,-0.36256
1970.3568,387.35,-0.36347
1970.8812,387.45,-0.36391
1971.4062,387.55,-0.36444
1971.93,387.65,-0.36586
1972.455,387.75,-0.36661
1972.98,387.85,-0.36821
1973.5074,387.95,-0.36859
1974.033,388.05,-0.36776
1974.5574,388.15,-0.36775
1975.0818,388.25,-0.36839
1975.6056,388.35,-0.36885
1976.1324,388.45,-0.36987
1976.6592,388.55,-0.36994
1977.1842,388.65,-0.37019
1977.7074,388.75,-0.37087
1978.2306,388.85,-0.37042
1978.7568,388.95,-0.37031
1979.283,389.05,-0.37171
1979.8044,389.15,-0.37234
1980.327,389.25,-0.37275
1980.8508,389.35,-0.37405
1981.3746,389.45,-0.37379
1981.899,389.55,-0.37454
1982.4252,389.65,-0.37581
1982.9508,389.75,-0.37495
1983.4728,389.85,-0.3739
1983.9972,389.95,-0.37452
1984.5222,390.05,-0.37329
1985.0472,390.15,-0.37473
1985.5716,390.25,-0.37767
1986.0966,390.35,-0.37901
1986.6204,390.45,-0.37852
1987.1442,390.55,-0.37845
1987.668,390.65,-0.37934
1988.1906,390.75,-0.37942
1988.712,390.85,-0.37959
1989.2334,390.95,-0.38199
1989.7548,391.05,-0.38237
1990.2774,391.15,-0.3815
1990.8018,391.25,-0.38149
1991.3244,391.35,-0.38198
1991.8428,391.45,-0.38208
1992.3654,391.55,-0.38216
1992.8892,391.65,-0.38318
1993.4082,391.75,-0.38389
1993.929,391.85,-0.38548
1994.4492,391.95,-0.38595
1994.967,392.05,-0.3856
1995.4878,392.15,-0.38634
1996.0116,392.25,-0.38763
1996.5336,392.35,-0.38881
1997.0544,392.45,-0.38825
1997.5728,392.55,-0.38854
1998.0918,392.65,-0.38858
1998.6096,392.75,-0.39017
1999.1268,392.85,-0.39211
1999.6452,392.95,-0.39154
2000.1654,393.05,-0.39149
2000.6838,393.15,-0.39215
2001.1998,393.25,-0.39197
2001.717,393.35,-0.39266
2002.236,393.45,-0.39339
2002.755,393.55,-0.39339
2003.2746,393.65,-0.39349
2003.7912,393.75,-0.39399
2004.3078,393.85,-0.39481
2004.8292,393.95,-0.39474
2005.3446,394.05,-0.39474
2005.8642,394.15,-0.39639
2006.3844,394.25,-0.39896
2006.9028,394.35,-0.39978
2007.4248,394.45,-0.3987
2007.942,394.55,-0.39883
2008.4592,394.65,-0.40007
2008.974,394.75,-0.40232
2009.4888,394.85,-0.40211
2010.006,394.95,-0.40121
2010.525,395.05,-0.40106
2011.044,395.15,-0.40129
2011.566,395.25,-0.40334
2012.085,395.35,-0.40356
2012.601,395.45,-0.40387
2013.1164,395.55,-0.40448
2013.6336,395.65,-0.40587
2014.1508,395.75,-0.40701
2014.668,395.85,-0.40707
2015.1858,395.95,-0.40731
2015.7018,396.05,-0.40732
2016.2184,396.15,-0.40802
2016.7362,396.25,-0.40899
2017.2498,396.35,-0.40999
2017.7646,396.45,-0.40975
2018.2812,396.55,-0.40869
2018.7948,396.65,-0.40866
2019.309,396.75,-0.40884
2019.822,396.85,-0.41064
2020.3362,396.95,-0.4125
2020.8504,397.05,-0.4134
2021.364,397.15,-0.41395
2021.8782,397.25,-0.41411
2022.3924,397.35,-0.4138
2022.9048,397.45,-0.41481
2023.4184,397.55,-0.41621
2023.9278,397.65,-0.41722
2024.439,397.75,-0.41759
2024.9544,397.85,-0.41733
2025.4692,397.95,-0.41714
2025.981,398.05,-0.41761
2026.4958,398.15,-0.41798
2027.0088,398.25,-0.41934
2027.52,398.35,-0.42008
2028.033,398.45,-0.42116
2028.5484,398.55,-0.42268
2029.0626,398.65,-0.42351
2029.5762,398.75,-0.42382
2030.0886,398.85,-0.42326
2030.601,398.95,-0.42346
2031.1104,399.05,-0.42443
2031.621,399.15,-0.42514
2032.134,399.25,-0.42547
2032.6446,399.35,-0.42557
2033.1564,399.45,-0.42543
2033.67,399.55,-0.42652
2034.1824,399.65,-0.4286
2034.6942,399.75,-0.43038
2035.2078,399.85,-0.43038
2035.7202,399.95,-0.42978
2036.2308,400.05,-0.43112
2036.7444,400.15,-0.43345
2037.2544,400.25,-0.43357
2037.7638,400.35,-0.43359
2038.275,400.45,-0.43315
2038.7856,400.55,-0.43317
2039.2944,400.65,-0.43407
2039.8062,400.75,-0.43495
2040.3198,400.85,-0.43618
2040.8292,400.95,-0.43521
2041.338,401.05,-0.43612
2041.8474,401.15,-0.43771
2042.3574,401.25,-0.43883
2042.868,401.35,-0.44021
2043.3798,401.45,-0.44111
2043.8916,401.55,-0.44149
2044.4016,401.65,-0.44254
2044.9116,401.75,-0.44384
2045.4228,401.85,-0.44396
2045.9316,401.95,-0.4438
2046.4398,402.05,-0.44488
2046.9522,402.15,-0.44557
2047.4628,402.25,-0.44416
2047.9728,402.35,-0.44502
2048.4846,402.45,-0.44646
2048.9964,402.55,-0.44639
2049.507,402.65,-0.44641
2050.0176,402.75,-0.44776
2050.527,402.85,-0.44872
2051.0364,402.95,-0.44917
2051.5464,403.05,-0.44953
2052.0558,403.15,-0.45016
2052.5628,403.25,-0.45171
2053.0698,403.35,-0.45423
2053.5786,403.45,-0.45616
2054.085,403.55,-0.45616
2054.5932,403.65,-0.4567
2055.1008,403.75,-0.45807
2055.6072,403.85,-0.45834
2056.1136,403.95,-0.45728
2056.6218,404.05,-0.45746
2057.1276,404.15,-0.46007
2057.6346,404.25,-0.46178
2058.141,404.35,-0.46266
2058.6462,404.45,-0.4633
2059.1502,404.55,-0.46279
2059.6542,404.65,-0.4623
2060.1582,404.75,-0.46402
2060.6634,404.85,-0.46498
2061.1656,404.95,-0.46629
2061.669,405.05,-0.46725
2062.173,405.15,-0.46768
2062.677,405.25,-0.46846
2063.1828,405.35,-0.4694
2063.6868,405.45,-0.46975
2064.1908,405.55,-0.47114
2064.6942,405.65,-0.47148
2065.1988,405.75,-0.47211
2065.7034,405.85,-0.47383
2066.2074,405.95,-0.47483
2066.7114,406.05,-0.47578
2067.216,406.15,-0.478
2067.723,406.25,-0.47862
2068.23,406.35,-0.47926
2068.7334,406.45,-0.47927
2069.2356,406.55,-0.47843
2069.7408,406.65,-0.48016
2070.2442,406.75,-0.48033
2070.7446,406.85,-0.48018
2071.2474,406.95,-0.48153
2071.7502,407.05,-0.48349
2072.2518,407.15,-0.48527
2072.7558,407.25,-0.48692
2073.2592,407.35,-0.48669
2073.7632,407.45,-0.48794
2074.2648,407.55,-0.48922
2074.7658,407.65,-0.4904
2075.2686,407.75,-0.49181
2075.7684,407.85,-0.4921
2076.27,407.95,-0.49262
2076.7734,408.05,-0.49415
2077.2768,408.15,-0.49417
2077.7796,408.25,-0.49525
2078.2806,408.35,-0.49756
2078.7792,408.45,-0.49722
2079.2796,408.55,-0.49679
2079.7806,408.65,-0.4983
2080.2786,408.75,-0.49977
2080.7772,408.85,-0.50029
2081.2788,408.95,-0.50081
2081.7798,409.05,-0.5016
2082.2796,409.15,-0.50199
2082.7824,409.25,-0.50294
2083.2846,409.35,-0.50472
2083.7874,409.45,-0.50655
2084.2914,409.55,-0.50709
2084.7942,409.65,-0.50652
2085.2946,409.75,-0.50747
2085.7944,409.85,-0.50984
2086.2948,409.95,-0.50983
2086.7952,410.05,-0.50958
2087.2974,410.15,-0.51097
2087.8008,410.25,-0.51232
2088.3024,410.35,-0.51352
2088.804,410.45,-0.51358
2089.305,410.55,-0.51416
2089.8048,410.65,-0.51484
2090.3028,410.75,-0.51619
2090.8026,410.85,-0.5184
2091.3054,410.95,-0.51838
2091.8088,411.05,-0.51809
2092.308,411.15,-0.51866
2092.806,411.25,-0.51951
2093.3064,411.35,-0.51991
2093.8062,411.45,-0.52106
2094.3048,411.55,-0.52403
2094.8064,411.65,-0.52454
2095.3056,411.75,-0.52495
2095.8054,411.85,-0.52662
2096.3064,411.95,-0.52804
2096.8044,412.05,-0.52824
2097.3012,412.15,-0.52844
2097.7998,412.25,-0.52983
2098.2996,412.35,-0.5303
2098.7988,412.45,-0.53104
2099.2974,412.55,-0.53232
2099.796,412.65,-0.53287
2100.2946,412.75,-0.53391
2100.792,412.85,-0.53406
2101.2912,412.95,-0.53534
2101.7892,413.05,-0.53624
2102.2872,413.15,-0.53544
2102.7864,413.25,-0.53541
2103.2856,413.35,-0.53759
2103.7836,413.45,-0.5389
2104.2816,413.55,-0.54031
2104.7784,413.65,-0.54213
2105.2764,413.75,-0.54263
2105.7756,413.85,-0.54164
2106.2724,413.95,-0.54184
2106.7716,414.05,-0.54256
2107.2684,414.15,-0.54272
2107.7634,414.25,-0.54419
2108.2602,414.35,-0.54649
2108.7564,414.45,-0.54668
2109.2538,414.55,-0.54701
2109.7524,414.65,-0.54838
2110.251,414.75,-0.54998
2110.7484,414.85,-0.55158
2111.244,414.95,-0.55295
2111.739,415.05,-0.55349
2112.2358,415.15,-0.55415
2112.7332,415.25,-0.55412
2113.2312,415.35,-0.55342
2113.7286,415.45,-0.55394
2114.2236,415.55,-0.55541
2114.7192,415.65,-0.55535
2115.2166,415.75,-0.55667
2115.7128,415.85,-0.55867
2116.2084,415.95,-0.55958
2116.704,416.05,-0.55964
2117.1996,416.15,-0.55992
2117.697,416.25,-0.56049
2118.1926,416.35,-0.56221
2118.6888,416.45,-0.56327
2119.1868,416.55,-0.5643
2119.686,416.65,-0.56551
2120.1846,416.75,-0.56559
2120.682,416.85,-0.56561
2121.1794,416.95,-0.5662
2121.6744,417.05,-0.56649
2122.1706,417.15,-0.56644
2122.668,417.25,-0.56696
2123.163,417.35,-0.56818
2123.6598,417.45,-0.56884
2124.1548,417.55,-0.56908
2124.6498,417.65,-0.57037
2125.1436,417.75,-0.57201
2125.6356,417.85,-0.5731
2126.1282,417.95,-0.57448
2126.6226,418.05,-0.57547
2127.1182,418.15,-0.57509
2127.612,418.25,-0.57512
2128.1046,418.35,-0.57621
2128.5978,418.45,-0.5771
2129.0922,418.55,-0.57769
2129.5884,418.65,-0.57869
2130.081,418.75,-0.57928
2130.5748,418.85,-0.57979
2131.0698,418.95,-0.58065
2131.5624,419.05,-0.58144
2132.0532,419.15,-0.58211
2132.5452,419.25,-0.58211
2133.0378,419.35,-0.58279
2133.5304,419.45,-0.58351
2134.0224,419.55,-0.58417
2134.5144,419.65,-0.58655
2135.0076,419.75,-0.58759
2135.5008,419.85,-0.58789
2135.9946,419.95,-0.5893
2136.4896,420.05,-0.59023
2136.9846,420.15,-0.58969
2137.479,420.25,-0.59099
2137.974,420.35,-0.59056
2138.4672,420.45,-0.59129
2138.9616,420.55,-0.59279
2139.4566,420.65,-0.59312
2139.9504,420.75,-0.59336
2140.4448,420.85,-0.59371
2140.9404,420.95,-0.59497
2141.4342,421.05,-0.59686
2141.9256,421.15,-0.59817
2142.4176,421.25,-0.59803
2142.9132,421.35,-0.5973
2143.407,421.45,-0.59809
2143.899,421.55,-0.59809
2144.3916,421.65,-0.59873
2144.8848,421.75,-0.60028
2145.378,421.85,-0.60102
2145.8712,421.95,-0.6023
2146.3632,422.05,-0.60223
2146.8576,422.15,-0.60479
2147.3508,422.25,-0.60664
2147.841,422.35,-0.60506
2148.333,422.45,-0.60468
2148.8262,422.55,-0.60414
2149.3164,422.65,-0.60445
2149.8072,422.75,-0.6074
2150.2998,422.85,-0.61086
2150.7912,422.95,-0.61173
2151.2844,423.05,-0.6112
2151.7794,423.15,-0.61064
2152.2702,423.25,-0.6103
2152.7622,423.35,-0.61057
2153.256,423.45,-0.61154
2153.7468,423.55,-0.61273
2154.2382,423.65,-0.61394
2154.7302,423.75,-0.6147
2155.2246,423.85,-0.61517
2155.7184,423.95,-0.61656
2156.2092,424.05,-0.61892
2156.7012,424.15,-0.62045
2157.1938,424.25,-0.62093
2157.6864,424.35,-0.62032
2158.1784,424.45,-0.62003
2158.6716,424.55,-0.62072
2159.1648,424.65,-0.62176
2159.6562,424.75,-0.6233
2160.1494,424.85,-0.62461
2160.645,424.95,-0.62467
2161.137,425.05,-0.62499
2161.6278,425.15,-0.62584
2162.1228,425.25,-0.62524
2162.6142,425.35,-0.62577
2163.1062,425.45,-0.62629
2163.5994,425.55,-0.62766
2164.0902,425.65,-0.62984
2164.5798,425.75,-0.63072
2165.0736,425.85,-0.63034
2165.5656,425.95,-0.63093
2166.0558,426.05,-0.63167
2166.549,426.15,-0.63072
2167.0422,426.25,-0.63002
2167.533,426.35,-0.63256
2168.0244,426.45,-0.63436
2168.5158,426.55,-0.63465
2169.0096,426.65,-0.63543
2169.5028,426.75,-0.6364
2169.9948,426.85,-0.63633
2170.4886,426.95,-0.63693
2170.9818,427.05,-0.6384
2171.472,427.15,-0.63875
2171.9628,427.25,-0.63867
2172.4554,427.35,-0.63997
2172.9462,427.45,-0.64167
2173.4346,427.55,-0.64112
2173.926,427.65,-0.64022
2174.4174,427.75,-0.64061
2174.9082,427.85,-0.64132
2175.4002,427.95,-0.64125
2175.8904,428.05,-0.64113
2176.38,428.15,-0.64108
2176.8702,428.25,-0.64272
2177.3622,428.35,-0.64456
2177.8524,428.45,-0.64538
2178.3414,428.55,-0.64637
2178.8322,428.65,-0.64686
2179.3236,428.75,-0.647
2179.8138,428.85,-0.64703
2180.3034,428.95,-0.64896
2180.793,429.05,-0.65146
2181.2844,429.15,-0.64945
2181.7722,429.25,-0.64958
2182.263,429.35,-0.65031
2182.7532,429.45,-0.65092
2183.2398,429.55,-0.65216
2183.7276,429.65,-0.65271
2184.2184,429.75,-0.65251
2184.7098,429.85,-0.65326
2185.1994,429.95,-0.65477
2185.6896,430.05,-0.65588
2186.1804,430.15,-0.65593
2186.6682,430.25,-0.65549
2187.1602,430.35,-0.65685
2187.6516,430.45,-0.65793
2188.1424,430.55,-0.65857
2188.6338,430.65,-0.65954
2189.1258,430.75,-0.66014
2189.6184,430.85,-0.66135
2190.1092,430.95,-0.66034
2190.6006,431.05,-0.65818
2191.0926,431.15,-0.65785
2191.5846,431.25,-0.65943
2192.0754,431.35,-0.66061
2192.5674,431.45,-0.66176
2193.0582,431.55,-0.66292
2193.5472,431.65,-0.66366
2194.0386,431.75,-0.66574
2194.5324,431.85,-0.66903
2195.022,431.95,-0.66631
2195.5152,432.05,-0.66491
2196.009,432.15,-0.6673
2196.4998,432.25,-0.66879
2196.99,432.35,-0.66714
2197.4796,432.45,-0.66624
2197.9692,432.55,-0.66641
2198.4594,432.65,-0.66857
2198.9514,432.75,-0.66986
2199.4428,432.85,-0.66905
2199.9318,432.95,-0.66942
2200.4208,433.05,-0.67067
2200.911,433.15,-0.67105
2201.4006,433.25,-0.67174
2201.8896,433.35,-0.67285
2202.3792,433.45,-0.67267
2202.8688,433.55,-0.67201
2203.3614,433.65,-0.67367
2203.851,433.75,-0.67502
2204.3388,433.85,-0.67429
2204.829,433.95,-0.67381
2205.3192,434.05,-0.6759
2205.8118,434.15,-0.67787
2206.3044,434.25,-0.67843
2206.794,434.35,-0.67795
2207.2818,434.45,-0.67765
2207.772,434.55,-0.67796
2208.2622,434.65,-0.67798
2208.753,434.75,-0.67843
2209.2444,434.85,-0.67942
2209.7358,434.95,-0.68072
2210.2278,435.05,-0.68145
2210.7204,435.15,-0.68106
2211.2124,435.25,-0.68136
2211.7044,435.35,-0.68086
2212.1964,435.45,-0.68125
2212.689,435.55,-0.68274
2213.1804,435.65,-0.68345
2213.6718,435.75,-0.6843
2214.1668,435.85,-0.68462
2214.66,435.95,-0.68493
2215.1526,436.05,-0.68542
2215.6458,436.15,-0.68547
2216.1348,436.25,-0.68514
2216.6274,436.35,-0.68585
2217.1182,436.45,-0.68689
2217.6096,436.55,-0.68706
2218.0992,436.65,-0.68711
2218.5864,436.75,-0.68857
2219.0802,436.85,-0.69014
2219.5728,436.95,-0.68837
2220.0642,437.05,-0.68847
2220.555,437.15,-0.6893
2221.0452,437.25,-0.68909
2221.5354,437.35,-0.69102
2222.0274,437.45,-0.69237
2222.5194,437.55,-0.69276
2223.0102,437.65,-0.69298
2223.501,437.75,-0.69315
2223.99,437.85,-0.69381
2224.4772,437.95,-0.69571
2224.9698,438.05,-0.69513
2225.4642,438.15,-0.69475
2225.9574,438.25,-0.69632
2226.4494,438.35,-0.69738
2226.9402,438.45,-0.69635
2227.4328,438.55,-0.69638
2227.926,438.65,-0.69622
2228.4192,438.75,-0.69675
2228.9112,438.85,-0.69762
2229.4032,438.95,-0.69784
2229.8964,439.05,-0.69888
2230.3896,439.15,-0.69976
2230.8852,439.25,-0.69939
2231.376,439.35,-0.70004
2231.8632,439.45,-0.70218
2232.3564,439.55,-0.70274
2232.8484,439.65,-0.70115
2233.3392,439.75,-0.69978
2233.8318,439.85,-0.70093
2234.3244,439.95,-0.70266
2234.817,440.05,-0.70282
2235.3066,440.15,-0.7029
2235.7962,440.25,-0.70284
2236.2894,440.35,-0.70366
2236.7838,440.45,-0.70442
2237.2764,440.55,-0.70496
2237.7672,440.65,-0.70599
2238.255,440.75,-0.70623
2238.744,440.85,-0.70653
2239.2348,440.95,-0.70637
2239.7244,441.05,-0.70629
2240.2122,441.15,-0.70737
2240.7018,441.25,-0.7086
2241.1926,441.35,-0.7081
2241.6846,441.45,-0.70741
2242.1766,441.55,-0.70757
2242.6668,441.65,-0.70761
2243.1564,441.75,-0.70781
2243.6478,441.85,-0.71038
2244.1392,441.95,-0.70968
2244.63,442.05,-0.70946
2245.1202,442.15,-0.71146
2245.6128,442.25,-0.71313
2246.1054,442.35,-0.71434
2246.598,442.45,-0.7144
2247.0864,442.55,-0.71502
2247.5766,442.65,-0.71552
2248.0704,442.75,-0.71484
2248.5624,442.85,-0.71423
2249.052,442.95,-0.7149
2249.5458,443.05,-0.71482
2250.0378,443.15,-0.71446
2250.5274,443.25,-0.7145
2251.0212,443.35,-0.71517
2251.5126,443.45,-0.71661
2252.0022,443.55,-0.71718
2252.4942,443.65,-0.71861
2252.985,443.75,-0.71957
2253.4728,443.85,-0.71907
2253.9636,443.95,-0.71859
2254.4544,444.05,-0.71862
2254.9464,444.15,-0.71914
2255.439,444.25,-0.71991
2255.9304,444.35,-0.72077
2256.4206,444.45,-0.72154
2256.9138,444.55,-0.72196
2257.4076,444.65,-0.72229
2257.8966,444.75,-0.72206
2258.385,444.85,-0.72129
2258.8752,444.95,-0.72165
2259.3654,445.05,-0.72349
2259.8592,445.15,-0.72361
2260.35,445.25,-0.72327
2260.8414,445.35,-0.7229
2261.3322,445.45,-0.72281
2261.8212,445.55,-0.72342
2262.312,445.65,-0.72426
2262.8022,445.75,-0.72455
2263.2936,445.85,-0.72493
2263.7838,445.95,-0.72591
2264.2746,446.05,-0.72673
2264.7678,446.15,-0.72744
2265.2598,446.25,-0.72956
2265.7512,446.35,-0.72937
2266.2414,446.45,-0.72866
2266.7316,446.55,-0.72889
2267.2212,446.65,-0.72908
2267.7108,446.75,-0.72932
2268.2022,446.85,-0.731
2268.693,446.95,-0.73225
2269.1838,447.05,-0.7314
2269.6734,447.15,-0.73023
2270.1636,447.25,-0.73064
2270.6568,447.35,-0.73076
2271.1482,447.45,-0.73252
2271.639,447.55,-0.73389
2272.1298,447.65,-0.73426
2272.6212,447.75,-0.73469
2273.1138,447.85,-0.73454
2273.6022,447.95,-0.73407
2274.0942,448.05,-0.73606
2274.5856,448.15,-0.73732
2275.074,448.25,-0.73637
2275.566,448.35,-0.7362
2276.058,448.45,-0.73663
2276.55,448.55,-0.73705
2277.042,448.65,-0.7368
2277.534,448.75,-0.73686
2278.0242,448.85,-0.73879
2278.5144,448.95,-0.74138
2279.007,449.05,-0.74093
2279.499,449.15,-0.74156
2279.9916,449.25,-0.74114
2280.483,449.35,-0.7398
2280.9738,449.45,-0.74141
2281.4676,449.55,-0.74307
2281.959,449.65,-0.74348
2282.4498,449.75,-0.74292
2282.9406,449.85,-0.74342
2283.4308,449.95,-0.74539
2283.921,450.05,-0.74634
2284.4124,450.15,-0.74579
2284.902,450.25,-0.74613
2285.3898,450.35,-0.74586
2285.88,450.45,-0.74567
2286.372,450.55,-0.74792
2286.8622,450.65,-0.74976
2287.3548,450.75,-0.75066
2287.8462,450.85,-0.7507
2288.3358,450.95,-0.75123
2288.8278,451.05,-0.75176
2289.3204,451.15,-0.75017
2289.8088,451.25,-0.74963
2290.2996,451.35,-0.75128
2290.7916,451.45,-0.7515
2291.283,451.55,-0.75096
2291.775,451.65,-0.75306
2292.2652,451.75,-0.75456
2292.7566,451.85,-0.75464
2293.2468,451.95,-0.75543
2293.737,452.05,-0.75697
2294.2278,452.15,-0.75706
2294.7174,452.25,-0.7557
2295.2076,452.35,-0.7565
2295.6966,452.45,-0.75758
2296.1862,452.55,-0.75828
2296.6764,452.65,-0.75876
2297.1666,452.75,-0.75905
2297.6598,452.85,-0.76025
2298.1506,452.95,-0.76115
2298.6414,453.05,-0.76029
2299.1328,453.15,-0.75938
2299.6236,453.25,-0.76024
2300.1144,453.35,-0.76146
2300.6082,453.45,-0.76166
2301.0984,453.55,-0.7616
2301.5874,453.65,-0.76253
2302.077,453.75,-0.76349
2302.566,453.85,-0.76399
2303.0574,453.95,-0.76629
2303.5494,454.05,-0.76651
2304.039,454.15,-0.76607
2304.5286,454.25,-0.76646
2305.0188,454.35,-0.76684
2305.5096,454.45,-0.76707
2305.9998,454.55,-0.76847
2306.4894,454.65,-0.77042
2306.982,454.75,-0.77103
2307.4764,454.85,-0.77058
2307.9678,454.95,-0.77099
2308.461,455.05,-0.77176
2308.9524,455.15,-0.77093
2309.4432,455.25,-0.77103
2309.9352,455.35,-0.77237
2310.4248,455.45,-0.77327
2310.9138,455.55,-0.77409
2311.404,455.65,-0.7754
2311.8948,455.75,-0.77705
2312.385,455.85,-0.77838
2312.8728,455.95,-0.77888
2313.3594,456.05,-0.77942
2313.8508,456.15,-0.78164
2314.3422,456.25,-0.78273
2314.8336,456.35,-0.78208
2315.3262,456.45,-0.78196
2315.817,456.55,-0.78312
2316.3084,456.65,-0.78371
2316.801,456.75,-0.78476
2317.293,456.85,-0.78527
2317.785,456.95,-0.78482
2318.2764,457.05,-0.78539
2318.7678,457.15,-0.78819
2319.2568,457.25,-0.79017
2319.7452,457.35,-0.78969
2320.2354,457.45,-0.7888
2320.7274,457.55,-0.78948
2321.2194,457.65,-0.79088
2321.7108,457.75,-0.79184
2322.2016,457.85,-0.79437
2322.69,457.95,-0.79347
2323.1808,458.05,-0.79245
2323.6716,458.15,-0.79402
2324.1612,458.25,-0.79516
2324.6538,458.35,-0.7963
2325.1452,458.45,-0.79641
2325.6378,458.55,-0.79802
2326.1286,458.65,-0.80066
2326.6176,458.75,-0.80156
2327.109,458.85,-0.80174
2327.601,458.95,-0.80443
2328.0894,459.05,-0.80471
2328.5778,459.15,-0.80359
2329.0674,459.25,-0.80396
2329.5576,459.35,-0.80505
2330.0472,459.45,-0.80616
2330.535,459.55,-0.80633
2331.0246,459.65,-0.8067
2331.516,459.75,-0.80778
2332.0068,459.85,-0.80903
2332.4988,459.95,-0.8101
2332.9878,460.05,-0.8102
2333.4762,460.15,-0.81167
2333.9652,460.25,-0.8122
2334.4554,460.35,-0.81131
2334.9456,460.45,-0.81257
2335.4376,460.55,-0.81482
2335.9272,460.65,-0.81788
2336.4186,460.75,-0.81905
2336.9088,460.85,-0.81815
2337.3966,460.95,-0.81761
2337.888,461.05,-0.81823
2338.3782,461.15,-0.82012
2338.8714,461.25,-0.82191
2339.3622,461.35,-0.82295
2339.8488,461.45,-0.82417
2340.3372,461.55,-0.82533
2340.828,461.65,-0.82399
2341.3182,461.75,-0.82608
2341.8078,461.85,-0.82915
2342.2974,461.95,-0.8303
2342.7864,462.05,-0.83057
2343.276,462.15,-0.83017
2343.7662,462.25,-0.83137
2344.257,462.35,-0.83357
2344.746,462.45,-0.83499
2345.235,462.55,-0.83444
2345.724,462.65,-0.83396
2346.2124,462.75,-0.83845
2346.7032,462.85,-0.83891
2347.1934,462.95,-0.83807
2347.6824,463.05,-0.83931
2348.1744,463.15,-0.83987
2348.667,463.25,-0.84073
2349.156,463.35,-0.8413
2349.6462,463.45,-0.84162
2350.1376,463.55,-0.84236
2350.6272,463.65,-0.84337
2351.1186,463.75,-0.84439
2351.6064,463.85,-0.84679
2352.0954,463.95,-0.84682
2352.5856,464.05,-0.8465
2353.0758,464.15,-0.84849
2353.5642,464.25,-0.85028
2354.055,464.35,-0.84973
2354.5452,464.45,-0.8523
2355.0354,464.55,-0.85399
2355.5262,464.65,-0.85507
2356.0176,464.75,-0.85736
2356.506,464.85,-0.8571
2356.9968,464.95,-0.85766
2357.4864,465.05,-0.85918
2357.9766,465.15,-0.86015
2358.468,465.25,-0.86136
2358.9558,465.35,-0.86381
2359.4466,465.45,-0.86499
2359.9374,465.55,-0.86684
2360.4288,465.65,-0.86676
2360.919,465.75,-0.86597
2361.4074,465.85,-0.8671
2361.8982,465.95,-0.86755
2362.3878,466.05,-0.86721
2362.878,466.15,-0.86754
2363.3682,466.25,-0.86951
2363.8578,466.35,-0.87165
2364.3492,466.45,-0.87214
2364.8418,466.55,-0.87274
2365.3314,466.65,-0.87394
2365.8228,466.75,-0.87568
2366.3148,466.85,-0.87588
2366.8044,466.95,-0.87551
2367.294,467.05,-0.87905
2367.7836,467.15,-0.88123
2368.2732,467.25,-0.88258
2368.764,467.35,-0.88394
2369.2536,467.45,-0.88517
2369.7426,467.55,-0.88639
2370.2346,467.65,-0.88684
2370.726,467.75,-0.88593
2371.2186,467.85,-0.88596
2371.7112,467.95,-0.88742
2372.202,468.05,-0.88819
2372.694,468.15,-0.88797
2373.183,468.25,-0.89004
2373.6744,468.35,-0.89359
2374.1688,468.45,-0.89555
2374.6614,468.55,-0.89449
2375.1522,468.65,-0.89267
2375.6418,468.75,-0.89356
2376.1332,468.85,-0.89518
2376.6246,468.95,-0.89614
2377.1148,469.05,-0.89719
2377.6056,469.15,-0.89891
2378.0994,469.25,-0.90052
2378.592,469.35,-0.90211
2379.0846,469.45,-0.90267
2379.576,469.55,-0.90307
2380.0662,469.65,-0.90404
2380.56,469.75,-0.90486
2381.0508,469.85,-0.90594
2381.5428,469.95,-0.90872
2382.0348,470.05,-0.91034
2382.5256,470.15,-0.90981
2383.0158,470.25,-0.90989
2383.5066,470.35,-0.91202
2383.9992,470.45,-0.91299
2384.49,470.55,-0.91282
2384.979,470.65,-0.91385
2385.4686,470.75,-0.91472
2385.9588,470.85,-0.91376
2386.4496,470.95,-0.91572
2386.9392,471.05,-0.9175
2387.4276,471.15,-0.91945
2387.9196,471.25,-0.92087
2388.4116,471.35,-0.92044
2388.8988,471.45,-0.92012
2389.3896,471.55,-0.92094
2389.8822,471.65,-0.9226
2390.373,471.75,-0.9245
2390.8626,471.85,-0.92586
2391.3522,471.95,-0.92645
2391.8424,472.05,-0.9273
2392.3326,472.15,-0.9281
2392.8222,472.25,-0.92927
2393.3112,472.35,-0.93076
2393.802,472.45,-0.93191
2394.291,472.55,-0.93274
2394.7806,472.65,-0.93387
2395.272,472.75,-0.93543
2395.7628,472.85,-0.93635
2396.253,472.95,-0.93651
2396.7438,473.05,-0.93726
2397.234,473.15,-0.93867
2397.7254,473.25,-0.93997
2398.2168,473.35,-0.94046
2398.7082,473.45,-0.94039
2399.1984,473.55,-0.94056
2399.6898,473.65,-0.9414
2400.183,473.75,-0.9429
2400.6738,473.85,-0.94376
2401.1658,473.95,-0.94464
2401.6596,474.05,-0.94545
2402.1516,474.15,-0.94575
2402.6424,474.25,-0.94821
2403.1344,474.35,-0.94947
2403.6264,474.45,-0.95038
2404.119,474.55,-0.95109
2404.6134,474.65,-0.9509
2405.1078,474.75,-0.9516
2405.6028,474.85,-0.9529
2406.0972,474.95,-0.95363
2406.5898,475.05,-0.95398
2407.0824,475.15,-0.95456
2407.5768,475.25,-0.95575
2408.07,475.35,-0.95798
2408.5632,475.45,-0.95999
2409.0552,475.55,-0.96032
2409.5484,475.65,-0.95989
2410.0422,475.75,-0.96096
2410.536,475.85,-0.96323
2411.0286,475.95,-0.96323
2411.5194,476.05,-0.96351
2412.012,476.15,-0.96525
2412.504,476.25,-0.96667
2412.9948,476.35,-0.96649
2413.4898,476.45,-0.96597
2413.9836,476.55,-0.96584
2414.4744,476.65,-0.96672
2414.9658,476.75,-0.96757
2415.459,476.85,-0.96805
2415.9516,476.95,-0.96942
2416.4454,477.05,-0.97165
2416.9368,477.15,-0.97355
2417.4282,477.25,-0.97379
2417.9208,477.35,-0.97365
2418.4128,477.45,-0.97507
2418.906,477.55,-0.97716
2419.401,477.65,-0.97794
2419.8942,477.75,-0.97745
2420.388,477.85,-0.97818
2420.88,477.95,-0.9798
2421.3708,478.05,-0.98061
2421.8658,478.15,-0.98266
2422.3578,478.25,-0.9846
2422.851,478.35,-0.98638
2423.3454,478.45,-0.98767
2423.8404,478.55,-0.98819
2424.3366,478.65,-0.98867
2424.831,478.75,-0.9893
2425.3266,478.85,-0.99015
2425.8204,478.95,-0.99012
2426.313,479.05,-0.99016
2426.8074,479.15,-0.992
2427.3012,479.25,-0.99395
2427.7926,479.35,-0.99289
2428.2864,479.45,-0.99329
2428.7796,479.55,-0.99388
2429.271,479.65,-0.99329
2429.7648,479.75,-0.9947
2430.261,479.85,-0.99789
2430.7548,479.95,-0.9988
2431.2486,480.05,-0.99943
2431.7424,480.15,-0.99989
2432.2356,480.25,-1.00033
2432.73,480.35,-1.00335
2433.2226,480.45,-1.00572
2433.7164,480.55,-1.00596
2434.2114,480.65,-1.00601
2434.7064,480.75,-1.00653
2435.2008,480.85,-1.00713
2435.6952,480.95,-1.00846
2436.189,481.05,-1.00833
2436.681,481.15,-1.00823
2437.1742,481.25,-1.01017
2437.6674,481.35,-1.01254
2438.1582,481.45,-1.01302
2438.652,481.55,-1.01385
2439.144,481.65,-1.01498
2439.6378,481.75,-1.01577
2440.1328,481.85,-1.01654
2440.6266,481.95,-1.01766
2441.1192,482.05,-1.01873
2441.6154,482.15,-1.01992
2442.1104,482.25,-1.02162
2442.603,482.35,-1.0236
2443.095,482.45,-1.0248
2443.5888,482.55,-1.02467
2444.0814,482.65,-1.02499
2444.574,482.75,-1.02855
2445.066,482.85,-1.03032
2445.5586,482.95,-1.0299
2446.0524,483.05,-1.02996
2446.5486,483.15,-1.03074
2447.0418,483.25,-1.03278
2447.5368,483.35,-1.03459
2448.03,483.45,-1.03617
2448.522,483.55,-1.03786
2449.0164,483.65,-1.03952
2449.5102,483.75,-1.04079
2450.0028,483.85,-1.04099
2450.4978,483.95,-1.04249
2450.9934,484.05,-1.0454
2451.4872,484.15,-1.0466
2451.9828,484.25,-1.04556
2452.479,484.35,-1.04678
2452.9734,484.45,-1.04932
2453.4684,484.55,-1.05099
2453.9634,484.65,-1.05229
2454.4572,484.75,-1.05404
2454.9516,484.85,-1.0557
2455.4472,484.95,-1.05742
2455.9416,485.05,-1.05845
2456.4366,485.15,-1.0584
2456.9328,485.25,-1.05875
2457.4284,485.35,-1.06016
2457.9252,485.45,-1.06142
2458.422,485.55,-1.06351
2458.9176,485.65,-1.06506
2459.4126,485.75,-1.06696
2459.907,485.85,-1.06809
2460.402,485.95,-1.06774
2460.9006,486.05,-1.06948
2461.3968,486.15,-1.07188
2461.893,486.25,-1.07341
2462.3898,486.35,-1.07546
2462.8866,486.45,-1.07764
2463.3816,486.55,-1.07808
2463.8778,486.65,-1.07849
2464.374,486.75,-1.08017
2464.8684,486.85,-1.08101
2465.3628,486.95,-1.08121
2465.8584,487.05,-1.08213
2466.3528,487.15,-1.08392
2466.849,487.25,-1.08683
2467.344,487.35,-1.0888
2467.839,487.45,-1.09039
2468.334,487.55,-1.09253
2468.8296,487.65,-1.09403
2469.324,487.75,-1.0934
2469.8196,487.85,-1.09274
2470.3134,487.95,-1.09466
2470.8078,488.05,-1.0954
2471.3034,488.15,-1.09655
2471.7978,488.25,-1.10022
2472.2928,488.35,-1.10014
2472.7884,488.45,-1.10134
2473.2828,488.55,-1.10145
2473.7784,488.65,-1.10057
2474.2758,488.75,-1.10142
2474.772,488.85,-1.10384
2475.2652,488.95,-1.10588
2475.7608,489.05,-1.10823
2476.2552,489.15,-1.10981
2476.7502,489.25,-1.11135
2477.2464,489.35,-1.11417
2477.7408,489.45,-1.117
2478.2364,489.55,-1.11803
2478.732,489.65,-1.1181
2479.227,489.75,-1.11685
2479.7226,489.85,-1.11638
2480.2188,489.95,-1.11824
2480.7162,490.05,-1.1193
2481.213,490.15,-1.11874
2481.7086,490.25,-1.12103
2482.2042,490.35,-1.12445
2482.701,490.45,-1.12586
2483.1978,490.55,-1.12634
2483.6952,490.65,-1.12789
2484.192,490.75,-1.12905
2484.6876,490.85,-1.13014
2485.1844,490.95,-1.13034
2485.6812,491.05,-1.13064
2486.175,491.15,-1.13298
2486.6682,491.25,-1.1353
2487.1626,491.35,-1.1367
2487.6594,491.45,-1.137
2488.1568,491.55,-1.13727
2488.6548,491.65,-1.13844
2489.1504,491.75,-1.14018
2489.6436,491.85,-1.14192
2490.1416,491.95,-1.14287
2490.639,492.05,-1.1433
2491.1352,492.15,-1.14454
2491.632,492.25,-1.14606
2492.1282,492.35,-1.14606
2492.6262,492.45,-1.14687
2493.1218,492.55,-1.14949
2493.618,492.65,-1.15044
2494.1142,492.75,-1.14958
2494.6104,492.85,-1.15038
2495.1054,492.95,-1.15277
2495.601,493.05,-1.15357
2496.0966,493.15,-1.15479
2496.591,493.25,-1.15598
2497.0854,493.35,-1.15713
2497.5822,493.45,-1.15874
2498.0766,493.55,-1.15869
2498.5716,493.65,-1.16085
2499.0678,493.75,-1.16298
2499.5652,493.85,-1.16475
2500.0632,493.95,-1.16471
2500.5594,494.05,-1.16271
2501.055,494.15,-1.16676
2501.5512,494.25,-1.16752
2502.0498,494.35,-1.16895
2502.546,494.45,-1.1713
2503.041,494.55,-1.17215
2503.539,494.65,-1.17434
2504.0358,494.75,-1.17491
2504.532,494.85,-1.17572
2505.0294,494.95,-1.17712
2505.5262,495.05,-1.17871
2506.0224,495.15,-1.17972
2506.5204,495.25,-1.17934
2507.0196,495.35,-1.17994
2507.5194,495.45,-1.18233
2508.0186,495.55,-1.1842
2508.5154,495.65,-1.18563
2509.0122,495.75,-1.18744
2509.512,495.85,-1.18767
2510.0094,495.95,-1.18808
2510.508,496.05,-1.19033
2511.0078,496.15,-1.19229
2511.5076,496.25,-1.19315
2512.0062,496.35,-1.19404
2512.5042,496.45,-1.19451
2513.0016,496.55,-1.1955
2513.5008,496.65,-1.19819
2514,496.75,-1.19978
2514.4974,496.85,-1.1994
2514.9954,496.95,-1.19885
2515.4946,497.05,-1.19808
2515.9932,497.15,-1.19894
2516.4912,497.25,-1.20034
2516.9892,497.35,-1.2016
2517.4872,497.45,-1.20294
2517.984,497.55,-1.20506
2518.4826,497.65,-1.20813
2518.9794,497.75,-1.20832
2519.4762,497.85,-1.20783
2519.9742,497.95,-1.20934
2520.4722,498.05,-1.21115
2520.969,498.15,-1.21131
2521.4682,498.25,-1.21227
2521.9674,498.35,-1.21237
2522.4648,498.45,-1.21233
2522.9622,498.55,-1.2137
2523.4608,498.65,-1.21623
2523.9582,498.75,-1.21848
2524.4556,498.85,-1.2204
2524.9542,498.95,-1.2222
2525.4522,499.05,-1.22255
2525.9496,499.15,-1.22211
2526.4476,499.25,-1.22327
2526.9462,499.35,-1.2261
2527.4448,499.45,-1.22723
2527.9458,499.55,-1.22668
2528.4456,499.65,-1.22712
2528.9436,499.75,-1.22831
2529.4428,499.85,-1.22928
2529.942,499.95,-1.2306
2530.4412,500.05,-1.23067
2530.9416,500.15,-1.2316
2531.442,500.25,-1.2324
2531.9406,500.35,-1.23307
2532.4374,500.45,-1.23454
2532.936,500.55,-1.23583
2533.4346,500.65,-1.23636
2533.9356,500.75,-1.23706
2534.4336,500.85,-1.23836
2534.931,500.95,-1.23943
2535.4326,501.05,-1.24055
2535.9324,501.15,-1.24274
2536.4298,501.25,-1.24353
2536.9284,501.35,-1.24436
2537.4276,501.45,-1.24596
2537.9268,501.55,-1.24756
2538.4266,501.65,-1.24853
2538.9246,501.75,-1.24858
2539.4226,501.85,-1.24719
2539.923,501.95,-1.24729
2540.4216,502.05,-1.24841
2540.9184,502.15,-1.24965
2541.4188,502.25,-1.2512
2541.9192,502.35,-1.25209
2542.4178,502.45,-1.25143
2542.9164,502.55,-1.25135
2543.4138,502.65,-1.25276
2543.9124,502.75,-1.2538
2544.414,502.85,-1.25358
2544.918,502.95,-1.25414
2545.4178,503.05,-1.25515
2545.9188,503.15,-1.25697
2546.4174,503.25,-1.25863
2546.9172,503.35,-1.2599
2547.42,503.45,-1.26151
2547.9216,503.55,-1.26346
2548.4214,503.65,-1.26562
2548.923,503.75,-1.26568
2549.4228,503.85,-1.2643
2549.9226,503.95,-1.26487
2550.4242,504.05,-1.26723
2550.9234,504.15,-1.26739
2551.4232,504.25,-1.26783
2551.9248,504.35,-1.27012
2552.4264,504.45,-1.27055
2552.925,504.55,-1.26964
2553.4236,504.65,-1.27017
2553.9246,504.75,-1.27088
2554.425,504.85,-1.27306
2554.9254,504.95,-1.27414
2555.4276,505.05,-1.27503
2555.9292,505.15,-1.27647
2556.4296,505.25,-1.27745
2556.93,505.35,-1.27816
2557.4274,505.45,-1.27936
2557.9272,505.55,-1.28139
2558.4294,505.65,-1.28328
2558.9316,505.75,-1.28296
2559.432,505.85,-1.28127
2559.93,505.95,-1.28194
2560.4298,506.05,-1.28407
2560.929,506.15,-1.28584
2561.4282,506.25,-1.28705
2561.9298,506.35,-1.28761
2562.4308,506.45,-1.28807
2562.9294,506.55,-1.28988
2563.4292,506.65,-1.29193
2563.9314,506.75,-1.29129
2564.4312,506.85,-1.2907
2564.9298,506.95,-1.29186
2565.432,507.05,-1.29346
2565.9354,507.15,-1.295
2566.4352,507.25,-1.29615
2566.9356,507.35,-1.29712
2567.4378,507.45,-1.29795
2567.9388,507.55,-1.29856
2568.4392,507.65,-1.29871
2568.9402,507.75,-1.29839
2569.4394,507.85,-1.29828
2569.9398,507.95,-1.29834
2570.4414,508.05,-1.29955
2570.9424,508.15,-1.30138
2571.4422,508.25,-1.30246
2571.9426,508.35,-1.30365
2572.446,508.45,-1.30657
2572.9464,508.55,-1.30727
2573.4474,508.65,-1.30722
2573.9496,508.75,-1.30825
2574.4506,508.85,-1.30997
2574.9534,508.95,-1.31169
2575.4562,509.05,-1.3123
2575.9584,509.15,-1.31207
2576.4582,509.25,-1.31193
2576.9604,509.35,-1.31289
2577.465,509.45,-1.31404
2577.9672,509.55,-1.31433
2578.47,509.65,-1.31573
2578.9728,509.75,-1.31606
2579.475,509.85,-1.31626
2579.9766,509.95,-1.31708
2580.4776,510.05,-1.31934
2580.978,510.15,-1.32238
2581.4796,510.25,-1.32209
2581.9824,510.35,-1.32142
2582.4864,510.45,-1.32145
2582.9898,510.55,-1.32291
2583.4914,510.65,-1.32409
2583.993,510.75,-1.32284
2584.4976,510.85,-1.32188
2584.9986,510.95,-1.32282
2585.5014,511.05,-1.32407
2586.0036,511.15,-1.32522
2586.5052,511.25,-1.32669
2587.0074,511.35,-1.32757
2587.5072,511.45,-1.32739
2588.01,511.55,-1.32934
2588.5134,511.65,-1.32993
2589.0162,511.75,-1.33049
2589.5178,511.85,-1.33138
2590.0182,511.95,-1.33191
2590.521,512.05,-1.33459
2591.0244,512.15,-1.33607
2591.5272,512.25,-1.33574
2592.0282,512.35,-1.33554
2592.528,512.45,-1.33614
2593.029,512.55,-1.33652
2593.5342,512.65,-1.33686
2594.04,512.75,-1.3392
2594.5428,512.85,-1.34083
2595.0444,512.95,-1.34133
2595.5454,513.05,-1.34218
2596.047,513.15,-1.34358
2596.5498,513.25,-1.34468
2597.0484,513.35,-1.34599
2597.5524,513.45,-1.34745
2598.0558,513.55,-1.34838
2598.5574,513.65,-1.34918
2599.0602,513.75,-1.35085
2599.563,513.85,-1.35301
2600.0694,513.95,-1.35401
2600.5698,514.05,-1.35437
2601.0702,514.15,-1.35464
2601.5736,514.25,-1.35439
2602.077,514.35,-1.35401
2602.5816,514.45,-1.35415
2603.0826,514.55,-1.35381
2603.5824,514.65,-1.35462
2604.0846,514.75,-1.35755
2604.5886,514.85,-1.35873
2605.092,514.95,-1.35775
2605.5942,515.05,-1.35778
2606.0952,515.15,-1.35727
2606.5974,515.25,-1.35649
2607.1002,515.35,-1.3564
2607.6036,515.45,-1.35727
2608.1082,515.55,-1.35843
2608.6128,515.65,-1.35998
2609.1156,515.75,-1.36264
2609.6196,515.85,-1.36431
2610.1224,515.95,-1.36573
2610.624,516.05,-1.36667
2611.128,516.15,-1.36814
2611.6338,516.25,-1.36983
2612.139,516.35,-1.36938
2612.64,516.45,-1.37011
2613.1446,516.55,-1.3702
2613.6504,516.65,-1.37051
2614.1544,516.75,-1.37255
2614.659,516.85,-1.37375
2615.1636,516.95,-1.37255
2615.6664,517.05,-1.37437
2616.1728,517.15,-1.37487
2616.6798,517.25,-1.37499
2617.1844,517.35,-1.37583
2617.689,517.45,-1.37634
2618.196,517.55,-1.37677
2618.7006,517.65,-1.3786
2619.2058,517.75,-1.38004
2619.7116,517.85,-1.37982
2620.2174,517.95,-1.37958
2620.7208,518.05,-1.38014
2621.223,518.15,-1.38062
2621.7288,518.25,-1.38139
2622.2352,518.35,-1.38343
2622.7392,518.45,-1.38421
2623.2444,518.55,-1.38429
2623.7508,518.65,-1.38551
2624.2548,518.75,-1.38716
2624.7582,518.85,-1.38732
2625.2646,518.95,-1.38691
2625.7698,519.05,-1.38782
2626.2768,519.15,-1.38805
2626.7838,519.25,-1.38979
2627.2878,519.35,-1.392
2627.7924,519.45,-1.3912
2628.2988,519.55,-1.39178
2628.801,519.65,-1.39244
2629.3026,519.75,-1.39395
2629.8084,519.85,-1.3955
2630.3142,519.95,-1.39557
2630.8164,520.05,-1.39518
2631.3228,520.15,-1.39599
2631.828,520.25,-1.39602
2632.3326,520.35,-1.39734
2632.836,520.45,-1.39829
2633.3424,520.55,-1.39808
2633.85,520.65,-1.39849
2634.354,520.75,-1.39944
2634.8604,520.85,-1.3996
2635.3668,520.95,-1.40187
2635.8708,521.05,-1.40194
2636.3754,521.15,-1.40093
2636.8824,521.25,-1.40177
2637.3882,521.35,-1.40295
2637.8916,521.45,-1.40415
2638.395,521.55,-1.40442
2638.8978,521.65,-1.40563
2639.4006,521.75,-1.40631
2639.9058,521.85,-1.40624
2640.4116,521.95,-1.40747
2640.9186,522.05,-1.40884
2641.4256,522.15,-1.40909
2641.9326,522.25,-1.41085
2642.4384,522.35,-1.41388
2642.9448,522.45,-1.41496
2643.4518,522.55,-1.41364
2643.9558,522.65,-1.41333
2644.4604,522.75,-1.41459
2644.9632,522.85,-1.41424
2645.4684,522.95,-1.41463
2645.9748,523.05,-1.41601
2646.4788,523.15,-1.41674
2646.9846,523.25,-1.41727
2647.4874,523.35,-1.41785
2647.9938,523.45,-1.41785
2648.5014,523.55,-1.41909
2649.0078,523.65,-1.42113
2649.5124,523.75,-1.42217
2650.0164,523.85,-1.42181
2650.5216,523.95,-1.4213
2651.0286,524.05,-1.42222
2651.5332,524.15,-1.42277
2652.0384,524.25,-1.42297
2652.5454,524.35,-1.42343
2653.0506,524.45,-1.42397
2653.5552,524.55,-1.42477
2654.0616,524.65,-1.42639
2654.5662,524.75,-1.42716
2655.0708,524.85,-1.42749
2655.5766,524.95,-1.42841
2656.083,525.05,-1.42951
2656.59,525.15,-1.43026
2657.0964,525.25,-1.43144
2657.6052,525.35,-1.43233
2658.1116,525.45,-1.4341
2658.615,525.55,-1.43582
2659.1202,525.65,-1.43614
2659.6272,525.75,-1.43585
2660.1324,525.85,-1.43599
2660.6382,525.95,-1.43541
2661.144,526.05,-1.436
2661.6492,526.15,-1.43623
2662.1556,526.25,-1.43714
2662.6632,526.35,-1.43947
2663.1714,526.45,-1.44044
2663.6778,526.55,-1.44056
2664.1854,526.65,-1.4408
2664.6918,526.75,-1.44142
2665.1976,526.85,-1.44159
2665.7034,526.95,-1.44211
2666.2092,527.05,-1.44383
2666.7138,527.15,-1.44474
2667.2214,527.25,-1.44478
2667.7302,527.35,-1.44423
2668.2384,527.45,-1.44416
2668.7454,527.55,-1.44528
2669.25,527.65,-1.44647
2669.7552,527.75,-1.447
2670.2604,527.85,-1.44921
2670.7686,527.95,-1.45102
2671.2774,528.05,-1.45227
2671.7856,528.15,-1.45184
2672.2956,528.25,-1.4497
2672.8062,528.35,-1.4494
2673.3132,528.45,-1.4524
2673.8208,528.55,-1.45294
2674.3284,528.65,-1.45031
2674.8372,528.75,-1.44943
2675.3466,528.85,-1.45142
2675.8536,528.95,-1.45355
2676.3594,529.05,-1.45507
2676.8676,529.15,-1.4566
2677.3764,529.25,-1.4588
2677.8852,529.35,-1.45943
2678.3928,529.45,-1.45909
2678.8998,529.55,-1.45808
2679.408,529.65,-1.45712
2679.9192,529.75,-1.4591
2680.4256,529.85,-1.45826
2680.932,529.95,-1.4589
2681.4408,530.05,-1.46237
2681.9502,530.15,-1.4655
2682.459,530.25,-1.46532
2682.9678,530.35,-1.46308
2683.476,530.45,-1.46429
2683.986,530.55,-1.46757
2684.4948,530.65,-1.46647
2685.0006,530.75,-1.46631
2685.5076,530.85,-1.46952
2686.017,530.95,-1.46952
2686.5258,531.05,-1.46656
2687.0334,531.15,-1.46701
2687.5404,531.25,-1.46849
2688.0486,531.35,-1.4718
2688.5586,531.45,-1.47386
2689.068,531.55,-1.47332
2689.5774,531.65,-1.47449
2690.0844,531.75,-1.47564
2690.5938,531.85,-1.47696
2691.1032,531.95,-1.47587
2691.615,532.05,-1.47514
2692.1256,532.15,-1.47546
2692.6332,532.25,-1.47487
2693.145,532.35,-1.47531
2693.655,532.45,-1.47639
2694.1638,532.55,-1.47617
2694.6732,532.65,-1.47665
2695.1832,532.75,-1.47825
2695.6926,532.85,-1.47935
2696.2014,532.95,-1.48019
2696.7114,533.05,-1.48205
2697.2214,533.15,-1.4835
2697.732,533.25,-1.48484
2698.2426,533.35,-1.48528
2698.752,533.45,-1.48569
2699.2608,533.55,-1.48578
2699.7702,533.65,-1.48413
2700.2802,533.75,-1.48446
2700.789,533.85,-1.48505
2701.2996,533.95,-1.48566
2701.8096,534.05,-1.48586
2702.3202,534.15,-1.48635
2702.8326,534.25,-1.48824
2703.3414,534.35,-1.49027
2703.8526,534.45,-1.49163
2704.3608,534.55,-1.49347
2704.8696,534.65,-1.49346
2705.3802,534.75,-1.49235
2705.8902,534.85,-1.49168
2706.4008,534.95,-1.49197
2706.912,535.05,-1.49477
2707.4232,535.15,-1.49548
2707.9344,535.25,-1.49478
2708.4456,535.35,-1.4953
2708.9562,535.45,-1.49781
2709.465,535.55,-1.49962
2709.9732,535.65,-1.49862
2710.4838,535.75,-1.49788
2710.9932,535.85,-1.49763
2711.5056,535.95,-1.49837
2712.0186,536.05,-1.50003
2712.5304,536.15,-1.50017
2713.0422,536.25,-1.49999
2713.5546,536.35,-1.50359
2714.0658,536.45,-1.50541
2714.5746,536.55,-1.50539
2715.0846,536.65,-1.50685
2715.5958,536.75,-1.50789
2716.1058,536.85,-1.50726
2716.6164,536.95,-1.50705
2717.1288,537.05,-1.50696
2717.6388,537.15,-1.50708
2718.1482,537.25,-1.50714
2718.6588,537.35,-1.50772
2719.1706,537.45,-1.50902
2719.6824,537.55,-1.50988
2720.1936,537.65,-1.51064
2720.7066,537.75,-1.51345
2721.2184,537.85,-1.51408
2721.7296,537.95,-1.51397
2722.2426,538.05,-1.51364
2722.7544,538.15,-1.51256
2723.2656,538.25,-1.5116
2723.7798,538.35,-1.5122
2724.2898,538.45,-1.51411
2724.8004,538.55,-1.51476
2725.3128,538.65,-1.51565
2725.8222,538.75,-1.51619
2726.3322,538.85,-1.51698
2726.8452,538.95,-1.51854
2727.357,539.05,-1.51877
2727.8682,539.15,-1.51914
2728.3806,539.25,-1.51887
2728.893,539.35,-1.51791
2729.4042,539.45,-1.51895
2729.916,539.55,-1.52164
2730.4272,539.65,-1.52249
2730.939,539.75,-1.52074
2731.4508,539.85,-1.51864
2731.9626,539.95,-1.52215
2732.4738,540.05,-1.52478
2732.985,540.15,-1.52366
2733.4968,540.25,-1.52178
2734.0092,540.35,-1.52095
2734.5216,540.45,-1.52201
2735.0352,540.55,-1.52322
2735.5518,540.65,-1.52453
2736.063,540.75,-1.52503
2736.5724,540.85,-1.52451
2737.0854,540.95,-1.52423
2737.5978,541.05,-1.52492
2738.1102,541.15,-1.52591
2738.6244,541.25,-1.52724
2739.138,541.35,-1.52908
2739.6504,541.45,-1.52954
2740.1634,541.55,-1.52911
2740.6776,541.65,-1.52909
2741.1924,541.75,-1.52901
2741.7066,541.85,-1.52936
2742.2202,541.95,-1.52993
2742.7368,542.05,-1.53041
2743.2528,542.15,-1.53036
2743.7664,542.25,-1.53
2744.2806,542.35,-1.53152
2744.7942,542.45,-1.53456
2745.3102,542.55,-1.53436
2745.8256,542.65,-1.5347
2746.3392,542.75,-1.53432
2746.854,542.85,-1.53444
2747.367,542.95,-1.53543
2747.877,543.05,-1.53609
2748.39,543.15,-1.53696
2748.9072,543.25,-1.53821
2749.4238,543.35,-1.5379
2749.938,543.45,-1.53888
2750.4516,543.55,-1.54018
2750.9676,543.65,-1.54062
2751.4824,543.75,-1.54052
2751.9966,543.85,-1.53998
2752.5144,543.95,-1.54034
2753.0304,544.05,-1.542
2753.5452,544.15,-1.54288
2754.06,544.25,-1.54324
2754.5748,544.35,-1.54346
2755.089,544.45,-1.54507
2755.6014,544.55,-1.54751
2756.1174,544.65,-1.54597
2756.6334,544.75,-1.5459
2757.1494,544.85,-1.54795
2757.663,544.95,-1.54809
2758.176,545.05,-1.54772
2758.6902,545.15,-1.54869
2759.2032,545.25,-1.54887
2759.718,545.35,-1.54856
2760.2358,545.45,-1.54825
2760.7524,545.55,-1.54798
2761.2678,545.65,-1.54759
2761.7838,545.75,-1.54836
2762.2998,545.85,-1.55055
2762.8164,545.95,-1.55184
2763.3324,546.05,-1.551
2763.8472,546.15,-1.55018
2764.3638,546.25,-1.55031
2764.8798,546.35,-1.55212
2765.3952,546.45,-1.55368
2765.9106,546.55,-1.55332
2766.4254,546.65,-1.55275
2766.9444,546.75,-1.55363
2767.4592,546.85,-1.55425
2767.9752,546.95,-1.5546
2768.4912,547.05,-1.55738
2769.0066,547.15,-1.55855
2769.5244,547.25,-1.55723
2770.0428,547.35,-1.55721
2770.5606,547.45,-1.55759
2771.0796,547.55,-1.55861
2771.598,547.65,-1.55903
2772.1176,547.75,-1.55817
2772.636,547.85,-1.5578
2773.1544,547.95,-1.55913
2773.6728,548.05,-1.56054
2774.1894,548.15,-1.55989
2774.7072,548.25,-1.55821
2775.2298,548.35,-1.55839
2775.7488,548.45,-1.5587
2776.2666,548.55,-1.55871
2776.7862,548.65,-1.55986
2777.3046,548.75,-1.56174
2777.8224,548.85,-1.56316
2778.3426,548.95,-1.56434
2778.8616,549.05,-1.56324
2779.3782,549.15,-1.56218
2779.8996,549.25,-1.56245
2780.4216,549.35,-1.56303
2780.9406,549.45,-1.56324
2781.4602,549.55,-1.56205
2781.9774,549.65,-1.55938
2782.4916,549.75,-1.55969
2783.0106,549.85,-1.56122
2783.5266,549.95,-1.56186
2784.0438,550.05,-1.56211
2784.5616,550.15,-1.56245
2785.0794,550.25,-1.56292
2785.5984,550.35,-1.56404
2786.1162,550.45,-1.56506
2786.6352,550.55,-1.56443
2787.1536,550.65,-1.56563
2787.6684,550.75,-1.56604
2788.1862,550.85,-1.56602
2788.7058,550.95,-1.56739
2789.223,551.05,-1.56848
2789.742,551.15,-1.56877
2790.261,551.25,-1.5685
2790.777,551.35,-1.56797
2791.2954,551.45,-1.56757
2791.8162,551.55,-1.56733
2792.3346,551.65,-1.5675
2792.8518,551.75,-1.56729
2793.3708,551.85,-1.56614
2793.8904,551.95,-1.56679
2794.41,552.05,-1.5659
2794.9296,552.15,-1.56587
2795.4504,552.25,-1.56602
2795.973,552.35,-1.56556
2796.4944,552.45,-1.56584
2797.014,552.55,-1.56693
2797.5336,552.65,-1.56722
2798.0526,552.75,-1.56609
2798.5722,552.85,-1.56748
2799.0918,552.95,-1.56916
2799.612,553.05,-1.56868
2800.1328,553.15,-1.56808
2800.6518,553.25,-1.56846
2801.1726,553.35,-1.56869
2801.6952,553.45,-1.5709
2802.216,553.55,-1.57082
2802.7374,553.65,-1.56937
2803.26,553.75,-1.57036
2803.782,553.85,-1.57188
2804.3034,553.95,-1.57198
2804.8248,554.05,-1.57199
2805.3468,554.15,-1.57121
2805.8706,554.25,-1.57157
2806.3932,554.35,-1.57129
2806.9128,554.45,-1.57037
2807.4348,554.55,-1.57113
2807.9586,554.65,-1.57225
2808.4788,554.75,-1.57185
2808.9972,554.85,-1.57223
2809.5204,554.95,-1.5742
2810.0424,555.05,-1.57516
2810.5644,555.15,-1.57517
2811.0876,555.25,-1.57506
2811.6102,555.35,-1.57574
2812.1322,555.45,-1.5766
2812.6548,555.55,-1.57694
2813.1798,555.65,-1.57782
2813.7012,555.75,-1.57884
2814.2238,555.85,-1.57917
2814.747,555.95,-1.57842
2815.2684,556.05,-1.5785
2815.791,556.15,-1.57971
2816.3148,556.25,-1.58087
2816.8356,556.35,-1.58113
2817.3576,556.45,-1.58086
2817.8814,556.55,-1.58242
2818.4022,556.65,-1.58205
2818.9248,556.75,-1.58248
2819.4516,556.85,-1.58363
2819.9766,556.95,-1.58281
2820.4986,557.05,-1.5825
2821.0224,557.15,-1.58508
2821.5492,557.25,-1.58573
2822.0736,557.35,-1.58525
2822.5992,557.45,-1.58417
2823.123,557.55,-1.5843
2823.6468,557.65,-1.586
2824.1712,557.75,-1.58692
2824.695,557.85,-1.58584
2825.2182,557.95,-1.58481
2825.7414,558.05,-1.58549
2826.2676,558.15,-1.58683
2826.792,558.25,-1.58694
2827.314,558.35,-1.5868
2827.8384,558.45,-1.58744
2828.3634,558.55,-1.58806
2828.8878,558.65,-1.5885
2829.4134,558.75,-1.58894
2829.939,558.85,-1.58788
2830.4646,558.95,-1.58756
2830.9884,559.05,-1.58977
2831.5134,559.15,-1.59105
2832.036,559.25,-1.59027
2832.5592,559.35,-1.58903
2833.0854,559.45,-1.58816
2833.611,559.55,-1.58777
2834.1336,559.65,-1.58768
2834.6574,559.75,-1.58609
2835.1806,559.85,-1.58714
2835.7056,559.95,-1.58821
2836.2312,560.05,-1.58959
2836.7556,560.15,-1.58992
2837.2812,560.25,-1.58948
2837.8086,560.35,-1.5911
2838.3336,560.45,-1.5895
2838.8556,560.55,-1.59027
2839.3794,560.65,-1.58984
2839.9062,560.75,-1.58939
2840.4324,560.85,-1.59022
2840.958,560.95,-1.58981
2841.4842,561.05,-1.58823
2842.0086,561.15,-1.58839
2842.5324,561.25,-1.58921
2843.0538,561.35,-1.59135
2843.5782,561.45,-1.59256
2844.1056,561.55,-1.59113
2844.6306,561.65,-1.59071
2845.155,561.75,-1.59159
2845.68,561.85,-1.59162
2846.2008,561.95,-1.59264
2846.727,562.05,-1.59459
2847.2538,562.15,-1.59555
2847.7818,562.25,-1.59547
2848.308,562.35,-1.59584
2848.8324,562.45,-1.59551
2849.3586,562.55,-1.59575
2849.8842,562.65,-1.59763
2850.4092,562.75,-1.59843
2850.936,562.85,-1.59856
2851.4634,562.95,-1.59863
2851.9902,563.05,-1.59917
2852.5164,563.15,-1.59824
2853.042,563.25,-1.59678
2853.5682,563.35,-1.59619
2854.0962,563.45,-1.59688
2854.623,563.55,-1.59829
2855.1498,563.65,-1.59808
2855.6796,563.75,-1.5979
2856.207,563.85,-1.5991
2856.732,563.95,-1.59973
2857.26,564.05,-1.60005
2857.7886,564.15,-1.60018
2858.3154,564.25,-1.5997
2858.8452,564.35,-1.59914
2859.3744,564.45,-1.59832
2859.9018,564.55,-1.59748
2860.4298,564.65,-1.59835
2860.9578,564.75,-1.59766
2861.487,564.85,-1.59742
2862.0162,564.95,-1.59775
2862.543,565.05,-1.59821
2863.0674,565.15,-1.60001
2863.5924,565.25,-1.60091
2864.1216,565.35,-1.59913
2864.6508,565.45,-1.59996
2865.1776,565.55,-1.60106
2865.7056,565.65,-1.60109
2866.233,565.75,-1.60037
2866.761,565.85,-1.60045
2867.2908,565.95,-1.6002
2867.8194,566.05,-1.59872
2868.3468,566.15,-1.60014
2868.8736,566.25,-1.59961
2869.4004,566.35,-1.60035
2869.9284,566.45,-1.60289
2870.457,566.55,-1.60491
2870.9856,566.65,-1.60618
2871.513,566.75,-1.60631
2872.0416,566.85,-1.60498
2872.5714,566.95,-1.60423
2873.0982,567.05,-1.60295
2873.6292,567.15,-1.60335
2874.156,567.25,-1.60408
2874.681,567.35,-1.60437
2875.212,567.45,-1.60434
2875.7448,567.55,-1.60433
2876.2734,567.65,-1.60533
2876.802,567.75,-1.60731
2877.3294,567.85,-1.60831
2877.8586,567.95,-1.6083
2878.3866,568.05,-1.60777
2878.9152,568.15,-1.60867
2879.442,568.25,-1.60867
2879.9676,568.35,-1.60756
2880.4968,568.45,-1.60772
2881.0272,568.55,-1.60786
2881.5582,568.65,-1.60681
2882.0874,568.75,-1.60779
2882.6172,568.85,-1.60974
2883.1452,568.95,-1.61133
2883.6762,569.05,-1.61161
2884.2078,569.15,-1.61013
2884.737,569.25,-1.60963
2885.265,569.35,-1.61144
2885.7936,569.45,-1.61229
2886.3198,569.55,-1.61173
2886.8508,569.65,-1.60993
2887.3848,569.75,-1.61005
2887.9146,569.85,-1.61246
2888.4444,569.95,-1.61277
2888.9778,570.05,-1.61257
2889.5094,570.15,-1.61397
2890.0404,570.25,-1.61446
2890.5714,570.35,-1.615
2891.1018,570.45,-1.61376
2891.631,570.55,-1.61292
2892.1638,570.65,-1.6142
2892.6972,570.75,-1.61625
2893.2288,570.85,-1.61632
2893.7592,570.95,-1.61581
2894.289,571.05,-1.61617
2894.82,571.15,-1.61617
2895.3522,571.25,-1.61777
2895.8832,571.35,-1.61937
2896.4118,571.45,-1.61959
2896.941,571.55,-1.62003
2897.4726,571.65,-1.61932
2898.0024,571.75,-1.61768
2898.5322,571.85,-1.61733
2899.0632,571.95,-1.61761
2899.5924,572.05,-1.617
2900.1222,572.15,-1.61717
2900.6502,572.25,-1.6178
2901.1788,572.35,-1.61772
2901.7068,572.45,-1.61683
2902.2348,572.55,-1.61601
2902.7646,572.65,-1.617
2903.2962,572.75,-1.61922
2903.8272,572.85,-1.61992
2904.3576,572.95,-1.62009
2904.8874,573.05,-1.62147
2905.416,573.15,-1.62049
2905.944,573.25,-1.61979
2906.4732,573.35,-1.62066
2907.0048,573.45,-1.62143
2907.5346,573.55,-1.62118
2908.0644,573.65,-1.62107
2908.599,573.75,-1.62168
2909.1294,573.85,-1.62155
2909.661,573.95,-1.62164
2910.1902,574.05,-1.62191
2910.723,574.15,-1.62138
2911.2558,574.25,-1.62161
2911.788,574.35,-1.62316
2912.319,574.45,-1.62439
2912.8494,574.55,-1.62489
2913.384,574.65,-1.62549
2913.9174,574.75,-1.62585
2914.4502,574.85,-1.62614
2914.9836,574.95,-1.62677
2915.5158,575.05,-1.62578
2916.0474,575.15,-1.62641
2916.5784,575.25,-1.62841
2917.11,575.35,-1.62807
2917.644,575.45,-1.6274
2918.1756,575.55,-1.62906
2918.7084,575.65,-1.62965
2919.2418,575.75,-1.62999
2919.7758,575.85,-1.63054
2920.3104,575.95,-1.63248
2920.8426,576.05,-1.63323
2921.3748,576.15,-1.63281
2921.9082,576.25,-1.63251
2922.4416,576.35,-1.63193
2922.9744,576.45,-1.63312
2923.5042,576.55,-1.63351
2924.0352,576.65,-1.63281
2924.5662,576.75,-1.63413
2925.1014,576.85,-1.63556
2925.6354,576.95,-1.63579
2926.1658,577.05,-1.63682
2926.6962,577.15,-1.63835
2927.2266,577.25,-1.63818
2927.7588,577.35,-1.63764
2928.2922,577.45,-1.63734
2928.8268,577.55,-1.63651
2929.3602,577.65,-1.6366
2929.8912,577.75,-1.63707
2930.4228,577.85,-1.63656
2930.9556,577.95,-1.63675
2931.4866,578.05,-1.63837
2932.017,578.15,-1.63867
2932.5492,578.25,-1.63862
2933.0802,578.35,-1.64103
2933.6112,578.45,-1.64259
2934.1452,578.55,-1.64161
2934.6786,578.65,-1.64113
2935.2114,578.75,-1.6429
2935.746,578.85,-1.6448
2936.2794,578.95,-1.64483
2936.8134,579.05,-1.64334
2937.3486,579.15,-1.64166
2937.8778,579.25,-1.64199
2938.4106,579.35,-1.6425
2938.9452,579.45,-1.64388
2939.4792,579.55,-1.64494
2940.0144,579.65,-1.64522
2940.5478,579.75,-1.64456
2941.0788,579.85,-1.64396
2941.6104,579.95,-1.64515
2942.1426,580.05,-1.64522
2942.676,580.15,-1.64504
2943.2106,580.25,-1.64617
2943.7452,580.35,-1.64725
2944.2816,580.45,-1.64662
2944.8162,580.55,-1.64599
2945.3496,580.65,-1.64706
2945.8836,580.75,-1.64846
2946.4164,580.85,-1.64891
2946.9504,580.95,-1.64878
2947.4838,581.05,-1.64792
2948.0154,581.15,-1.64868
2948.5488,581.25,-1.65034
2949.084,581.35,-1.65119
2949.6174,581.45,-1.65192
2950.1496,581.55,-1.6518
2950.6836,581.65,-1.65101
2951.2176,581.75,-1.65172
2951.7492,581.85,-1.65156
2952.2832,581.95,-1.65154
2952.8148,582.05,-1.65033
2953.3476,582.15,-1.64983
2953.8822,582.25,-1.65018
2954.4174,582.35,-1.65061
2954.952,582.45,-1.6527
2955.4878,582.55,-1.65455
2956.0224,582.65,-1.65302
2956.5552,582.75,-1.65307
2957.0886,582.85,-1.65322
2957.6244,582.95,-1.65309
2958.1602,583.05,-1.65351
2958.6942,583.15,-1.65421
2959.2288,583.25,-1.65459
2959.7634,583.35,-1.65391
2960.298,583.45,-1.6537
2960.8338,583.55,-1.65617
2961.3654,583.65,-1.65847
2961.8988,583.75,-1.65813
2962.4352,583.85,-1.65786
2962.9728,583.95,-1.65656
2963.505,584.05,-1.65559
2964.0402,584.15,-1.6571
2964.579,584.25,-1.65968
2965.1136,584.35,-1.66028
2965.6476,584.45,-1.65948
2966.1822,584.55,-1.65966
2966.7168,584.65,-1.65861
2967.252,584.75,-1.65805
2967.7848,584.85,-1.65929
2968.3176,584.95,-1.65811
2968.8534,585.05,-1.65675
2969.3898,585.15,-1.65755
2969.9244,585.25,-1.65852
2970.4572,585.35,-1.65947
2970.9918,585.45,-1.66099
2971.5282,585.55,-1.66134
2972.0628,585.65,-1.66112
2972.5998,585.75,-1.65992
2973.1356,585.85,-1.66039
2973.6738,585.95,-1.65957
2974.2114,586.05,-1.65901
2974.7466,586.15,-1.65928
2975.2836,586.25,-1.65868
2975.8206,586.35,-1.65959
2976.3582,586.45,-1.65862
2976.8922,586.55,-1.65673
2977.425,586.65,-1.65816
2977.9638,586.75,-1.65795
2978.5026,586.85,-1.65864
2979.0384,586.95,-1.6591
2979.5748,587.05,-1.65791
2980.113,587.15,-1.65743
2980.6512,587.25,-1.65817
2981.1876,587.35,-1.65935
2981.7222,587.45,-1.65917
2982.2592,587.55,-1.66179
2982.7974,587.65,-1.66059
2983.335,587.75,-1.65714
2983.872,587.85,-1.65733
2984.4078,587.95,-1.6585
2984.9412,588.05,-1.65874
2985.4752,588.15,-1.65933
2986.0116,588.25,-1.65843
2986.5462,588.35,-1.65865
2987.085,588.45,-1.65928
2987.619,588.55,-1.65931
2988.1518,588.65,-1.65893
2988.6876,588.75,-1.65888
2989.2234,588.85,-1.65906
2989.7604,588.95,-1.65855
2990.2992,589.05,-1.65749
2990.8368,589.15,-1.65711
2991.375,589.25,-1.65727
2991.9126,589.35,-1.65672
2992.4496,589.45,-1.65498
2992.9872,589.55,-1.654
2993.5242,589.65,-1.6532
2994.063,589.75,-1.65286
2994.6012,589.85,-1.65338
2995.1376,589.95,-1.65442
2995.674,590.05,-1.65438
2996.211,590.15,-1.65298
2996.748,590.25,-1.65392
2997.288,590.35,-1.65391
2997.828,590.45,-1.65662
2998.3662,590.55,-1.65509
2998.9026,590.65,-1.65503
2999.4384,590.75,-1.65585
2999.976,590.85,-1.65412
3000.5154,590.95,-1.65277
3001.0554,591.05,-1.65219
3001.5954,591.15,-1.65119
3002.1342,591.25,-1.65138
3002.6724,591.35,-1.65123
3003.2082,591.45,-1.65228
3003.747,591.55,-1.65383
3004.2858,591.65,-1.65426
3004.8228,591.75,-1.65301
3005.3604,591.85,-1.65267
3005.8986,591.95,-1.65374
3006.4392,592.05,-1.65303
3006.9774,592.15,-1.65176
3007.518,592.25,-1.65119
3008.058,592.35,-1.6509
3008.5986,592.45,-1.65019
3009.1386,592.55,-1.65079
3009.6774,592.65,-1.65102
3010.2174,592.75,-1.65055
3010.7574,592.85,-1.65013
3011.2968,592.95,-1.64917
3011.8386,593.05,-1.64938
3012.3792,593.15,-1.65105
3012.9204,593.25,-1.64873
3013.4586,593.35,-1.64754
3013.9962,593.45,-1.64664
3014.5344,593.55,-1.64524
3015.0726,593.65,-1.64368
3015.6126,593.75,-1.64401
3016.1526,593.85,-1.64564
3016.6902,593.95,-1.64565
3017.2308,594.05,-1.64414
3017.7714,594.15,-1.64243
3018.3132,594.25,-1.64206
3018.8526,594.35,-1.64268
3019.3932,594.45,-1.64287
3019.9308,594.55,-1.64331
3020.4684,594.65,-1.64283
3021.0072,594.75,-1.64174
3021.546,594.85,-1.64034
3022.0866,594.95,-1.6384
3022.6254,595.05,-1.6372
3023.163,595.15,-1.63648
3023.7042,595.25,-1.63761
3024.2442,595.35,-1.63732
3024.783,595.45,-1.63556
3025.3212,595.55,-1.63447
3025.8624,595.65,-1.63359
3026.4054,595.75,-1.63268
3026.9478,595.85,-1.63292
3027.4902,595.95,-1.63368
3028.0314,596.05,-1.63339
3028.5726,596.15,-1.63222
3029.1138,596.25,-1.63037
3029.6538,596.35,-1.63144
3030.1944,596.45,-1.6306
3030.7338,596.55,-1.62958
3031.2744,596.65,-1.62926
3031.8132,596.75,-1.62737
3032.3532,596.85,-1.62604
3032.8968,596.95,-1.62646
3033.4374,597.05,-1.62583
3033.978,597.15,-1.62633
3034.518,597.25,-1.62671
3035.0598,597.35,-1.62525
3035.6004,597.45,-1.62166
3036.141,597.55,-1.62065
3036.6828,597.65,-1.62079
3037.2246,597.75,-1.62086
3037.767,597.85,-1.62047
3038.3112,597.95,-1.61905
3038.8524,598.05,-1.61767
3039.3924,598.15,-1.61627
3039.9342,598.25,-1.6167
3040.476,598.35,-1.61686
3041.0166,598.45,-1.61686
3041.556,598.55,-1.61583
3042.0984,598.65,-1.61453
3042.6408,598.75,-1.61288
3043.182,598.85,-1.61151
3043.7244,598.95,-1.61006
3044.2668,599.05,-1.60889
3044.8086,599.15,-1.60854
3045.3492,599.25,-1.60251
3045.8922,599.35,-1.59994
3046.4346,599.45,-1.5976
3046.977,599.55,-1.59712
3047.5182,599.65,-1.59663
3048.0612,599.75,-1.59602
3048.603,599.85,-1.59548
3049.1424,599.95,-1.59415
3049.6842,600.05,-1.59212
3050.2272,600.15,-1.59041
3050.7684,600.25,-1.59033
3051.3102,600.35,-1.58826
3051.8532,600.45,-1.58779
3052.3932,600.55,-1.58688
3052.9344,600.65,-1.58464
3053.4756,600.75,-1.5831
3054.0192,600.85,-1.58206
3054.5628,600.95,-1.58137
3055.1028,601.05,-1.58125
3055.6458,601.15,-1.5798
3056.1864,601.25,-1.57758
3056.727,601.35,-1.57657
3057.2694,601.45,-1.57505
3057.8106,601.55,-1.57671
3058.3524,601.65,-1.57612
3058.8942,601.75,-1.5721
3059.439,601.85,-1.56978
3059.9814,601.95,-1.56999
3060.5202,602.05,-1.56978
3061.0626,602.15,-1.56848
3061.6062,602.25,-1.56663
3062.1504,602.35,-1.56486
3062.6922,602.45,-1.56358
3063.234,602.55,-1.56167
3063.7722,602.65,-1.55932
3064.3134,602.75,-1.55646
3064.857,602.85,-1.55454
3065.4,602.95,-1.55331
3065.9448,603.05,-1.55159
3066.4878,603.15,-1.55037
3067.0278,603.25,-1.54971
3067.5738,603.35,-1.54781
3068.1162,603.45,-1.54599
3068.6604,603.55,-1.54527
3069.2046,603.65,-1.54267
3069.7494,603.75,-1.54108
3070.2924,603.85,-1.54016
3070.8348,603.95,-1.54008
3071.3784,604.05,-1.53921
3071.9202,604.15,-1.53532
3072.4602,604.25,-1.53241
3073.0038,604.35,-1.53244
3073.5462,604.45,-1.53027
3074.0898,604.55,-1.52771
3074.6334,604.65,-1.52626
3075.177,604.75,-1.52519
3075.7212,604.85,-1.52416
3076.266,604.95,-1.52274
3076.8108,605.05,-1.51979
3077.3562,605.15,-1.51725
3077.9028,605.25,-1.51581
3078.4458,605.35,-1.51327
3078.99,605.45,-1.51182
3079.5378,605.55,-1.50924
3080.082,605.65,-1.50441
3080.6274,605.75,-1.50309
3081.1722,605.85,-1.50235
3081.7146,605.95,-1.50074
3082.2582,606.05,-1.49868
3082.8036,606.15,-1.49778
3083.3496,606.25,-1.49618
3083.8944,606.35,-1.49316
3084.4398,606.45,-1.49228
3084.9846,606.55,-1.49036
3085.5306,606.65,-1.48807
3086.0742,606.75,-1.48485
3086.6196,606.85,-1.48193
3087.1644,606.95,-1.47956
3087.7092,607.05,-1.47617
3088.2528,607.15,-1.47362
3088.7976,607.25,-1.47168
3089.3454,607.35,-1.46847
3089.8896,607.45,-1.46649
3090.4314,607.55,-1.46594
3090.9762,607.65,-1.46282
3091.521,607.75,-1.46131
3092.064,607.85,-1.45863
3092.6088,607.95,-1.45616
3093.153,608.05,-1.45413
3093.6984,608.15,-1.45203
3094.245,608.25,-1.45016
3094.7892,608.35,-1.44811
3095.3334,608.45,-1.44414
3095.88,608.55,-1.43905
3096.4248,608.65,-1.43627
3096.9732,608.75,-1.4347
3097.521,608.85,-1.43211
3098.0694,608.95,-1.43027
3098.6178,609.05,-1.4279
3099.1638,609.15,-1.4249
3099.7104,609.25,-1.42208
3100.2546,609.35,-1.42
3100.8006,609.45,-1.41666
3101.3484,609.55,-1.41216
3101.8926,609.65,-1.40908
3102.4392,609.75,-1.40697
3102.9858,609.85,-1.40507
3103.5354,609.95,-1.40225
3104.0838,610.05,-1.39982
3104.631,610.15,-1.3949
3105.1764,610.25,-1.39009
3105.723,610.35,-1.38899
3106.2702,610.45,-1.38884
3106.818,610.55,-1.38649
3107.367,610.65,-1.38226
3107.916,610.75,-1.37857
3108.4638,610.85,-1.3768
3109.0116,610.95,-1.37489
3109.5552,611.05,-1.37229
3110.1,611.15,-1.36899
3110.6472,611.25,-1.3664
3111.1962,611.35,-1.36354
3111.7446,611.45,-1.35991
3112.2912,611.55,-1.35599
3112.842,611.65,-1.35175
3113.3916,611.75,-1.34769
3113.937,611.85,-1.3439
3114.4878,611.95,-1.34036
3115.0362,612.05,-1.33871
3115.5846,612.15,-1.33649
3116.1306,612.25,-1.32893
3116.6754,612.35,-1.32488
3117.222,612.45,-1.3225
3117.7716,612.55,-1.32037
3118.32,612.65,-1.31703
3118.8684,612.75,-1.3152
3119.415,612.85,-1.31235
3119.9616,612.95,-1.30751
3120.5088,613.05,-1.3045
3121.0572,613.15,-1.30063
3121.605,613.25,-1.29526
3122.1534,613.35,-1.29282
3122.7036,613.45,-1.28951
3123.2526,613.55,-1.28646
3123.7992,613.65,-1.28268
3124.3464,613.75,-1.27812
3124.8948,613.85,-1.27413
3125.4408,613.95,-1.27106
3125.9874,614.05,-1.26767
3126.5352,614.15,-1.26395
3127.0812,614.25,-1.2602
3127.629,614.35,-1.2553
3128.1744,614.45,-1.25059
3128.7198,614.55,-1.24632
3129.267,614.65,-1.24214
3129.8148,614.75,-1.23687
3130.3632,614.85,-1.23268
3130.9092,614.95,-1.22919
3131.4558,615.05,-1.22663
3132.0054,615.15,-1.22362
3132.5544,615.25,-1.21865
3133.1028,615.35,-1.21459
3133.6512,615.45,-1.21099
3134.1984,615.55,-1.20347
3134.7456,615.65,-1.19761
3135.2916,615.75,-1.19429
3135.8376,615.85,-1.1904
3136.386,615.95,-1.18583
3136.9344,616.05,-1.18015
3137.4822,616.15,-1.1752
3138.0318,616.25,-1.17118
3138.5814,616.35,-1.16721
3139.1298,616.45,-1.16514
3139.6788,616.55,-1.16192
3140.2266,616.65,-1.15337
3140.7768,616.75,-1.14823
3141.3288,616.85,-1.14611
3141.879,616.95,-1.14543
3142.4304,617.05,-1.13787
3142.9806,617.15,-1.13448
3143.529,617.25,-1.13029
3144.0804,617.35,-1.1248
3144.6312,617.45,-1.12082
3145.1814,617.55,-1.11712
3145.7304,617.65,-1.11351
3146.2782,617.75,-1.10912
3146.829,617.85,-1.10374
3147.3804,617.95,-1.099
3147.9306,618.05,-1.0947
3148.4832,618.15,-1.08877
3149.0334,618.25,-1.08177
3149.5836,618.35,-1.07722
3150.1356,618.45,-1.07276
3150.6852,618.55,-1.06567
3151.2354,618.65,-1.0609
3151.7886,618.75,-1.05781
3152.34,618.85,-1.05406
3152.8938,618.95,-1.04918
3153.4464,619.05,-1.04154
3153.9948,619.15,-1.039
3154.5468,619.25,-1.03377
3155.0958,619.35,-1.02915
3155.646,619.45,-1.0246
3156.198,619.55,-1.01793
3156.7464,619.65,-1.01373
3157.2948,619.75,-1.00919
3157.8462,619.85,-1.00508
3158.3976,619.95,-1.00088
3158.9508,620.05,-0.99533
3159.5028,620.15,-0.99029
3160.0542,620.25,-0.98418
3160.6074,620.35,-0.97822
3161.157,620.45,-0.97199
3161.712,620.55,-0.97035
3162.2676,620.65,-0.96696
3162.8196,620.75,-0.95927
3163.3716,620.85,-0.9516
3163.9242,620.95,-0.94454
3164.4756,621.05,-0.93875
3165.0276,621.15,-0.93478
3165.579,621.25,-0.93095
3166.131,621.35,-0.92526
3166.6872,621.45,-0.91886
3167.2416,621.55,-0.91419
3167.7972,621.65,-0.90923
3168.3516,621.75,-0.90382
3168.9042,621.85,-0.89771
3169.4598,621.95,-0.89188
3170.0154,622.05,-0.88519
3170.5704,622.15,-0.87999
3171.1242,622.25,-0.87581
3171.6774,622.35,-0.86956
3172.2318,622.45,-0.86164
3172.788,622.55,-0.8547
3173.343,622.65,-0.84987
3173.8962,622.75,-0.84605
3174.4482,622.85,-0.84147
3175.0008,622.95,-0.83632
3175.5546,623.05,-0.83144
3176.1114,623.15,-0.82566
3176.6652,623.25,-0.8172
3177.2208,623.35,-0.81424
3177.7758,623.45,-0.8078
3178.3302,623.55,-0.80082
3178.8822,623.65,-0.79559
3179.4354,623.75,-0.78732
3179.9886,623.85,-0.77982
3180.54,623.95,-0.77634
3181.0938,624.05,-0.77148
3181.65,624.15,-0.76498
3182.2056,624.25,-0.75944
3182.7588,624.35,-0.75432
3183.3102,624.45,-0.74925
3183.8646,624.55,-0.74235
3184.419,624.65,-0.73679
3184.974,624.75,-0.73054
3185.5266,624.85,-0.72371
3186.0804,624.95,-0.71862
3186.6354,625.05,-0.71421
3187.1856,625.15,-0.7082
3187.7382,625.25,-0.70247
3188.2938,625.35,-0.69842
3188.8458,625.45,-0.69248
3189.3996,625.55,-0.68579
3189.9522,625.65,-0.6817
3190.5042,625.75,-0.67437
3191.0562,625.85,-0.66707
3191.6136,625.95,-0.66087
3192.1674,626.05,-0.65561
3192.7224,626.15,-0.64769
3193.2792,626.25,-0.64197
3193.8336,626.35,-0.638
3194.3862,626.45,-0.63372
3194.94,626.55,-0.63016
3195.4956,626.65,-0.62456
3196.0518,626.75,-0.61738
3196.605,626.85,-0.61107
3197.1594,626.95,-0.60775
3197.7138,627.05,-0.60333
3198.2706,627.15,-0.59856
3198.8286,627.25,-0.59402
3199.3836,627.35,-0.58614
3199.9416,627.45,-0.58147
3200.499,627.55,-0.57843
3201.0552,627.65,-0.57441
3201.6108,627.75,-0.57037
3202.1658,627.85,-0.56476
3202.722,627.95,-0.5581
3203.2794,628.05,-0.55363
3203.8362,628.15,-0.55026
3204.3894,628.25,-0.54497
3204.9462,628.35,-0.54082
3205.5012,628.45,-0.53735
3206.058,628.55,-0.53439
3206.6148,628.65,-0.53076
3207.1698,628.75,-0.5254
3207.7266,628.85,-0.52103
3208.2816,628.95,-0.51776
3208.8366,629.05,-0.51481
3209.3934,629.15,-0.51214
3209.9484,629.25,-0.50817
3210.5016,629.35,-0.5039
3211.0566,629.45,-0.50169
3211.6098,629.55,-0.49777
3212.1654,629.65,-0.49184
3212.7216,629.75,-0.49036
3213.2748,629.85,-0.49041
3213.8292,629.95,-0.48631
3214.3872,630.05,-0.48067
3214.9446,630.15,-0.47593
3215.499,630.25,-0.47297
3216.0558,630.35,-0.47049
3216.6138,630.45,-0.46685
3217.17,630.55,-0.46176
3217.7256,630.65,-0.45771
3218.2812,630.75,-0.45593
3218.8362,630.85,-0.45264
3219.3936,630.95,-0.44865
3219.948,631.05,-0.44602
3220.503,631.15,-0.44632
3221.0628,631.25,-0.44528
3221.6202,631.35,-0.4431
3222.1776,631.45,-0.43705
3222.7362,631.55,-0.43231
3223.2918,631.65,-0.42999
3223.8474,631.75,-0.4287
3224.406,631.85,-0.42827
3224.9634,631.95,-0.42758
3225.519,632.05,-0.42608
3226.077,632.15,-0.42399
3226.6338,632.25,-0.42177
3227.1912,632.35,-0.4195
3227.7492,632.45,-0.41622
3228.3048,632.55,-0.4122
3228.8598,632.65,-0.41022
3229.4166,632.75,-0.41238
3229.974,632.85,-0.4126
3230.5314,632.95,-0.41377
3231.0882,633.05,-0.41464
3231.645,633.15,-0.41387
3232.2024,633.25,-0.41397
3232.761,633.35,-0.41366
3233.3154,633.45,-0.41209
3233.871,633.55,-0.41173
3234.4284,633.65,-0.41201
3234.9846,633.75,-0.41111
3235.539,633.85,-0.40937
3236.0994,633.95,-0.41062
3236.6568,634.05,-0.41166
3237.2148,634.15,-0.41347
3237.7728,634.25,-0.41406
3238.332,634.35,-0.4148
3238.8894,634.45,-0.41673
3239.4462,634.55,-0.41582
3240.0012,634.65,-0.41685
3240.5568,634.75,-0.42307
3241.1172,634.85,-0.4263
3241.677,634.95,-0.42554
3242.2338,635.05,-0.4276
3242.7906,635.15,-0.43271
3243.348,635.25,-0.4318
3243.9042,635.35,-0.43477
3244.4586,635.45,-0.43828
3245.013,635.55,-0.44219
3245.5722,635.65,-0.44113
3246.1302,635.75,-0.44323
3246.687,635.85,-0.4466
3247.2432,635.95,-0.45003
3247.8012,636.05,-0.45518
3248.361,636.15,-0.45865
3248.9172,636.25,-0.4613
3249.474,636.35,-0.46365
3250.0296,636.45,-0.46535
3250.5852,636.55,-0.47149
3251.139,636.65,-0.47546
3251.697,636.75,-0.47426
3252.2544,636.85,-0.48017
3252.8148,636.95,-0.48663
3253.3716,637.05,-0.49124
3253.9254,637.15,-0.49593
3254.478,637.25,-0.49737
3255.0348,637.35,-0.49959
3255.591,637.45,-0.50494
3256.1454,637.55,-0.51054
3256.704,637.65,-0.51756
3257.262,637.75,-0.52573
3257.8206,637.85,-0.53464
3258.3768,637.95,-0.54295
3258.9354,638.05,-0.55135
3259.491,638.15,-0.56031
3260.0496,638.25,-0.57168
3260.6058,638.35,-0.58177
3261.1602,638.45,-0.59063
3261.7158,638.55,-0.60124
3262.2738,638.65,-0.61529
3262.8306,638.75,-0.62835
3263.3874,638.85,-0.64032
3263.9454,638.95,-0.6556
3264.5004,639.05,-0.67239
3265.0548,639.15,-0.68879
3265.611,639.25,-0.70581
3266.169,639.35,-0.72281
3266.7246,639.45,-0.74025
3267.2844,639.55,-0.75903
3267.84,639.65,-0.77815
3268.3998,639.75,-0.79857
3268.9572,639.85,-0.82092
3269.5134,639.95,-0.84285
3270.0696,640.05,-0.86455
3270.6252,640.15,-0.88836
3271.1802,640.25,-0.91168
3271.7358,640.35,-0.93271
3272.2902,640.45,-0.95096
3272.8428,640.55,-0.96565
3273.4002,640.65,-0.98428
3273.9564,640.75,-1.00223
3274.5114,640.85,-1.0199
3275.064,640.95,-1.03933
3275.6214,641.05,-1.06039
3276.1776,641.15,-1.08137
3276.7296,641.25,-1.10591
3277.2846,641.35,-1.13035
3277.8384,641.45,-1.15353
3278.391,641.55,-1.17663
3278.9466,641.65,-1.20182
3279.5016,641.75,-1.23057
3280.0566,641.85,-1.256
3280.6122,641.95,-1.27426
3281.166,642.05,-1.283
3281.7198,642.15,-1.28411
3282.2736,642.25,-1.28271
3282.8286,642.35,-1.27748
3283.3824,642.45,-1.26777
3283.9344,642.55,-1.26422
3284.4882,642.65,-1.26258
3285.0426,642.75,-1.26045
3285.5964,642.85,-1.26253
3286.149,642.95,-1.26845
3286.701,643.05,-1.27522
3287.253,643.15,-1.28052
3287.8068,643.25,-1.2855
3288.3576,643.35,-1.29196
3288.9114,643.45,-1.29868
3289.4664,643.55,-1.30393
3290.019,643.65,-1.31129
3290.571,643.75,-1.31239
3291.1242,643.85,-1.3106
3291.678,643.95,-1.30594
3292.2294,644.05,-1.29977
3292.7796,644.15,-1.29357
3293.3322,644.25,-1.28657
3293.8854,644.35,-1.28026
3294.438,644.45,-1.27431
3294.9912,644.55,-1.27287
3295.5432,644.65,-1.27485
3296.0964,644.75,-1.28198
3296.6514,644.85,-1.28784
3297.2058,644.95,-1.29395
3297.762,645.05,-1.30119
3298.314,645.15,-1.31052
3298.8666,645.25,-1.32133
3299.4228,645.35,-1.33153
3299.9778,645.45,-1.34131
3300.5322,645.55,-1.35292
3301.0872,645.65,-1.36139
3301.641,645.75,-1.35841
3302.1966,645.85,-1.34899
3302.7534,645.95,-1.33719
3303.3108,646.05,-1.33063
3303.867,646.15,-1.32513
3304.4214,646.25,-1.32417
3304.9776,646.35,-1.32594
3305.5332,646.45,-1.33084
3306.0864,646.55,-1.3375
3306.6426,646.65,-1.34421
3307.1994,646.75,-1.35086
3307.7544,646.85,-1.35705
3308.3106,646.95,-1.35963
3308.8656,647.05,-1.35595
3309.4182,647.15,-1.35009
3309.9726,647.25,-1.34445
3310.5264,647.35,-1.34003
3311.0838,647.45,-1.33534
3311.6388,647.55,-1.3311
3312.1944,647.65,-1.33154
3312.7506,647.75,-1.33192
3313.3074,647.85,-1.3294
3313.8624,647.95,-1.328
3314.4168,648.05,-1.32748
3314.9712,648.15,-1.32699
3315.5262,648.25,-1.32489
3316.0824,648.35,-1.31757
3316.638,648.45,-1.31011
3317.1948,648.55,-1.3048
3317.7516,648.65,-1.30065
3318.306,648.75,-1.30039
3318.8634,648.85,-1.30221
3319.4178,648.95,-1.3037
3319.9734,649.05,-1.30272
3320.5284,649.15,-1.29987
3321.084,649.25,-1.29639
3321.642,649.35,-1.29515
3322.1982,649.45,-1.29616
3322.752,649.55,-1.29737
3323.3076,649.65,-1.29706
3323.865,649.75,-1.29543
3324.4212,649.85,-1.29533
3324.9768,649.95,-1.2939
3325.5318,650.05,-1.30152
3326.088,650.15,-1.30893
3326.6466,650.25,-1.30585
3327.2046,650.35,-1.30449
3327.762,650.45,-1.30448
3328.32,650.55,-1.30378
3328.8762,650.65,-1.30452
3329.433,650.75,-1.30872
3329.991,650.85,-1.31323
3330.5478,650.95,-1.31709
3331.1046,651.05,-1.32165
3331.6608,651.15,-1.32417
3332.2158,651.25,-1.32688
3332.7744,651.35,-1.32741
3333.333,651.45,-1.3296
3333.8922,651.55,-1.33233
3334.4478,651.65,-1.33485
3335.0082,651.75,-1.3435
3335.5698,651.85,-1.34695
3336.1254,651.95,-1.34435
3336.6828,652.05,-1.34246
3337.239,652.15,-1.34907
3337.7952,652.25,-1.36032
3338.3544,652.35,-1.37018
3338.9118,652.45,-1.3805
3339.4686,652.55,-1.38846
3340.0254,652.65,-1.39306
3340.5804,652.75,-1.39137
3341.1366,652.85,-1.3876
3341.6946,652.95,-1.38719
3342.252,653.05,-1.38636
3342.8094,653.15,-1.39139
3343.368,653.25,-1.3949
3343.9248,653.35,-1.39454
3344.4834,653.45,-1.39779
3345.0432,653.55,-1.40323
3345.5994,653.65,-1.40473
3346.155,653.75,-1.40625
3346.713,653.85,-1.41126
3347.2722,653.95,-1.41606
3347.8308,654.05,-1.42155
3348.3888,654.15,-1.42489
3348.9486,654.25,-1.42491
3349.5048,654.35,-1.42747
3350.0652,654.45,-1.43801
3350.622,654.55,-1.44458
3351.1782,654.65,-1.4502
3351.7356,654.75,-1.45576
3352.2936,654.85,-1.45734
3352.8534,654.95,-1.45805
3353.4144,655.05,-1.46188
3353.973,655.15,-1.46845
3354.531,655.25,-1.47558
3355.0878,655.35,-1.4822
3355.6446,655.45,-1.48946
3356.2032,655.55,-1.49486
3356.7618,655.65,-1.49887
3357.318,655.75,-1.50548
3357.8754,655.85,-1.50912
3358.4352,655.95,-1.51637
3358.9938,656.05,-1.52451
3359.5554,656.15,-1.5314
3360.1122,656.25,-1.53596
3360.6684,656.35,-1.54013
3361.2282,656.45,-1.54431
3361.7874,656.55,-1.54733
3362.3472,656.65,-1.55122
3362.907,656.75,-1.55566
3363.4662,656.85,-1.55897
3364.0266,656.95,-1.56427
3364.5852,657.05,-1.56973
3365.1444,657.15,-1.57528
3365.7024,657.25,-1.58292
3366.2604,657.35,-1.58786
3366.8196,657.45,-1.59325
3367.3782,657.55,-1.59825
3367.9368,657.65,-1.60452
3368.4978,657.75,-1.61136
3369.0582,657.85,-1.61786
3369.618,657.95,-1.62351
3370.179,658.05,-1.6271
3370.7394,658.15,-1.63098
3371.2992,658.25,-1.63677
3371.859,658.35,-1.64234
3372.4182,658.45,-1.64805
3372.9774,658.55,-1.65341
3373.5378,658.65,-1.66083
3374.097,658.75,-1.66696
3374.6568,658.85,-1.67229
3375.2148,658.95,-1.67729
3375.7752,659.05,-1.68275
3376.3356,659.15,-1.68825
3376.8948,659.25,-1.69427
3377.4558,659.35,-1.70066
3378.0168,659.45,-1.70703
3378.5742,659.55,-1.71169
3379.1334,659.65,-1.71684
3379.6962,659.75,-1.72639
3380.259,659.85,-1.73545
3380.8206,659.95,-1.74042
3381.3798,660.05,-1.74313
3381.939,660.15,-1.75245
3382.4988,660.25,-1.75797
3383.0604,660.35,-1.76657
3383.6202,660.45,-1.77238
3384.1788,660.55,-1.77835
3384.7368,660.65,-1.78436
3385.2978,660.75,-1.79189
3385.8576,660.85,-1.79912
3386.4162,660.95,-1.80235
3386.9754,661.05,-1.80745
3387.5358,661.15,-1.81598
3388.098,661.25,-1.82224
3388.6572,661.35,-1.82896
3389.217,661.45,-1.83544
3389.775,661.55,-1.84188
3390.3312,661.65,-1.85055
3390.8928,661.75,-1.85746
3391.4544,661.85,-1.86073
3392.0142,661.95,-1.86567
3392.5728,662.05,-1.86694
3393.1326,662.15,-1.86867
3393.69,662.25,-1.874
3394.2492,662.35,-1.87954
3394.8126,662.45,-1.88802
3395.3724,662.55,-1.89781
3395.9316,662.65,-1.90418
3396.4938,662.75,-1.90741
3397.0554,662.85,-1.90914
3397.6188,662.95,-1.91869
3398.1774,663.05,-1.92559
3398.7378,663.15,-1.93278
3399.3,663.25,-1.93835
3399.8622,663.35,-1.94568
3400.4238,663.45,-1.95195
3400.9848,663.55,-1.95433
3401.547,663.65,-1.95582
3402.1104,663.75,-1.95922
3402.6732,663.85,-1.96483
3403.2348,663.95,-1.97189
3403.7964,664.05,-1.97857
3404.3574,664.15,-1.98353
3404.9166,664.25,-1.98955
3405.4782,664.35,-1.99773
3406.0392,664.45,-2.00176
3406.6038,664.55,-2.0035
3407.1666,664.65,-2.01068
3407.7252,664.75,-2.017
3408.2874,664.85,-2.02485
3408.8496,664.95,-2.03279
3409.4118,665.05,-2.03622
3409.9698,665.15,-2.04111
3410.532,665.25,-2.04922
3411.0954,665.35,-2.05652
3411.6564,665.45,-2.06224
3412.218,665.55,-2.06877
3412.779,665.65,-2.07297
3413.3382,665.75,-2.0756
3413.898,665.85,-2.08179
3414.4596,665.95,-2.08715
3415.023,666.05,-2.09157
3415.5852,666.15,-2.09509
3416.1468,666.25,-2.09838
3416.7078,666.35,-2.09989
3417.2694,666.45,-2.10055
3417.8316,666.55,-2.10202
3418.3926,666.65,-2.10538
3418.9548,666.75,-2.11177
3419.5152,666.85,-2.11727
3420.0774,666.95,-2.12356
3420.6408,667.05,-2.12949
3421.2012,667.15,-2.13389
3421.761,667.25,-2.13806
3422.3226,667.35,-2.14194
3422.8842,667.45,-2.14717
3423.444,667.55,-2.15119
3424.005,667.65,-2.15379
3424.566,667.75,-2.15668
3425.13,667.85,-2.16315
3425.6928,667.95,-2.16992
3426.2544,668.05,-2.17602
3426.816,668.15,-2.18275
3427.3758,668.25,-2.18651
3427.938,668.35,-2.19104
3428.5002,668.45,-2.19675
3429.0612,668.55,-2.19961
3429.624,668.65,-2.20241
3430.1856,668.75,-2.2051
3430.746,668.85,-2.20789
3431.3076,668.95,-2.21275
3431.8686,669.05,-2.2155
3432.4308,669.15,-2.22127
3432.9918,669.25,-2.22804
3433.5546,669.35,-2.2318
3434.1186,669.45,-2.23622
3434.682,669.55,-2.2382
3435.2448,669.65,-2.24311
3435.8088,669.75,-2.24928
3436.3716,669.85,-2.25414
3436.935,669.95,-2.25861
3437.4954,670.05,-2.25994
3438.0558,670.15,-2.2627
3438.6204,670.25,-2.26887
3439.1838,670.35,-2.27598
3439.7454,670.45,-2.28207
3440.3082,670.55,-2.2847
3440.8698,670.65,-2.28737
3441.4326,670.75,-2.29253
3441.996,670.85,-2.30041
3442.5606,670.95,-2.30388
3443.1246,671.05,-2.31117
3443.6874,671.15,-2.31746
3444.2514,671.25,-2.31981
3444.8148,671.35,-2.32389
3445.3794,671.45,-2.32749
3445.9434,671.55,-2.33148
3446.505,671.65,-2.3359
3447.0666,671.75,-2.34056
3447.6318,671.85,-2.34539
3448.1964,671.95,-2.34924
3448.758,672.05,-2.35249
3449.3202,672.15,-2.35638
3449.8836,672.25,-2.36026
3450.447,672.35,-2.36339
3451.0098,672.45,-2.36719
3451.575,672.55,-2.37097
3452.1402,672.65,-2.3778
3452.7048,672.75,-2.37867
3453.2682,672.85,-2.37997
3453.8322,672.95,-2.38531
3454.3968,673.05,-2.39063
3454.9602,673.15,-2.39483
3455.5224,673.25,-2.39921
3456.0852,673.35,-2.40417
3456.6504,673.45,-2.40854
3457.2144,673.55,-2.40965
3457.7778,673.65,-2.40967
3458.3412,673.75,-2.41161
3458.904,673.85,-2.41655
3459.468,673.95,-2.42517
3460.032,674.05,-2.42959
3460.5936,674.15,-2.43106
3461.1564,674.25,-2.43212
3461.7228,674.35,-2.43714
3462.2868,674.45,-2.44019
3462.8532,674.55,-2.44531
3463.4166,674.65,-2.44869
3463.9782,674.75,-2.45272
3464.5422,674.85,-2.45683
3465.1062,674.95,-2.46094
3465.6702,675.05,-2.46544
3466.236,675.15,-2.46878
3466.7988,675.25,-2.47192
3467.3598,675.35,-2.47667
3467.9244,675.45,-2.48109
3468.492,675.55,-2.48301
3469.0554,675.65,-2.4854
3469.6182,675.75,-2.49107
3470.1828,675.85,-2.49534
3470.748,675.95,-2.49949
3471.312,676.05,-2.50366
3471.8778,676.15,-2.5076
3472.4442,676.25,-2.51131
3473.0076,676.35,-2.5168
3473.574,676.45,-2.52037
3474.138,676.55,-2.52428
3474.7044,676.65,-2.52846
3475.269,676.75,-2.5327
3475.8324,676.85,-2.53749
3476.3994,676.95,-2.54132
3476.964,677.05,-2.54417
3477.5268,677.15,-2.5471
3478.092,677.25,-2.55018
3478.656,677.35,-2.55385
3479.2218,677.45,-2.55849
3479.7864,677.55,-2.56082
3480.3486,677.65,-2.56207
3480.9126,677.75,-2.56486
3481.4778,677.85,-2.56821
3482.0448,677.95,-2.57211
3482.6106,678.05,-2.57574
3483.1776,678.15,-2.57974
3483.7458,678.25,-2.58286
3484.3122,678.35,-2.58712
3484.878,678.45,-2.58881
3485.4438,678.55,-2.58971
3486.009,678.65,-2.59152
3486.5742,678.75,-2.59426
3487.1394,678.85,-2.59882
3487.7034,678.95,-2.60228
3488.2716,679.05,-2.60765
3488.8374,679.15,-2.61128
3489.402,679.25,-2.61156
3489.9696,679.35,-2.6162
3490.5348,679.45,-2.61875
3491.1012,679.55,-2.62079
3491.6664,679.65,-2.62355
3492.234,679.75,-2.62681
3492.804,679.85,-2.62881
3493.3722,679.95,-2.63088
3493.9404,680.05,-2.63371
3494.5044,680.15,-2.63629
3495.0684,680.25,-2.63948
3495.6342,680.35,-2.64312
3496.1988,680.45,-2.64563
3496.7646,680.55,-2.6492
3497.3298,680.65,-2.6521
3497.895,680.75,-2.65276
3498.4608,680.85,-2.65742
3499.0272,680.95,-2.65997
3499.5942,681.05,-2.65976
3500.1624,681.15,-2.66121
3500.7276,681.25,-2.66627
3501.2922,681.35,-2.66902
3501.861,681.45,-2.67085
3502.4268,681.55,-2.67531
3502.995,681.65,-2.67927
3503.5602,681.75,-2.68119
3504.1254,681.85,-2.6823
3504.6918,681.95,-2.68207
3505.2588,682.05,-2.68408
3505.8252,682.15,-2.68775
3506.388,682.25,-2.68965
3506.9532,682.35,-2.6919
3507.522,682.45,-2.6952
3508.0878,682.55,-2.6983
3508.6542,682.65,-2.70138
3509.2176,682.75,-2.70391
3509.7846,682.85,-2.70656
3510.3516,682.95,-2.70858
3510.9186,683.05,-2.70871
3511.485,683.15,-2.71175
3512.0514,683.25,-2.71355
3512.6184,683.35,-2.71213
3513.1848,683.45,-2.71179
3513.7518,683.55,-2.71591
3514.3176,683.65,-2.72066
3514.8828,683.75,-2.72217
3515.448,683.85,-2.72359
3516.015,683.95,-2.72502
3516.5838,684.05,-2.7257
3517.152,684.15,-2.72747
3517.7184,684.25,-2.72887
3518.2848,684.35,-2.73073
3518.8542,684.45,-2.73364
3519.4236,684.55,-2.73556
3519.9906,684.65,-2.73752
3520.5576,684.75,-2.74094
3521.1234,684.85,-2.74224
3521.694,684.95,-2.74303
3522.2604,685.05,-2.74346
3522.8268,685.15,-2.74764
3523.3944,685.25,-2.75009
3523.9626,685.35,-2.74867
3524.529,685.45,-2.75005
3525.0954,685.55,-2.75373
3525.6624,685.65,-2.75879
3526.2312,685.75,-2.76069
3526.8,685.85,-2.76077
3527.3676,685.95,-2.76284
3527.9364,686.05,-2.76393
3528.5028,686.15,-2.76623
3529.0692,686.25,-2.76722
3529.638,686.35,-2.76751
3530.205,686.45,-2.77045
3530.7732,686.55,-2.7714
3531.339,686.65,-2.7743
3531.9066,686.75,-2.77811
3532.4736,686.85,-2.77903
3533.0418,686.95,-2.78025
3533.6088,687.05,-2.78332
3534.177,687.15,-2.78563
3534.7464,687.25,-2.78653
3535.314,687.35,-2.78759
3535.8816,687.45,-2.78994
3536.4492,687.55,-2.79129
3537.0192,687.65,-2.79191
3537.5904,687.75,-2.79353
3538.158,687.85,-2.79625
3538.725,687.95,-2.79882
3539.292,688.05,-2.79986
3539.8608,688.15,-2.80202
3540.4302,688.25,-2.80429
3541.0014,688.35,-2.80697
3541.5726,688.45,-2.80602
3542.139,688.55,-2.80707
3542.7066,688.65,-2.80865
3543.2754,688.75,-2.81017
3543.8424,688.85,-2.81224
3544.4112,688.95,-2.81655
3544.9812,689.05,-2.81992
3545.5512,689.15,-2.81796
3546.1224,689.25,-2.81976
3546.6882,689.35,-2.82362
3547.2534,689.45,-2.82447
3547.824,689.55,-2.82549
3548.3928,689.65,-2.82841
3548.9598,689.75,-2.83033
3549.528,689.85,-2.83235
3550.095,689.95,-2.83558
3550.6644,690.05,-2.83513
3551.2344,690.15,-2.83764
3551.8032,690.25,-2.84021
3552.3708,690.35,-2.84197
3552.939,690.45,-2.84328
3553.5036,690.55,-2.84599
3554.0712,690.65,-2.8459
3554.6412,690.75,-2.84866
3555.21,690.85,-2.84923
3555.7788,690.95,-2.8495
3556.3488,691.05,-2.85247
3556.9194,691.15,-2.85432
3557.4882,691.25,-2.85541
3558.0576,691.35,-2.85833
3558.6246,691.45,-2.86074
3559.1922,691.55,-2.8624
3559.7628,691.65,-2.86293
3560.3304,691.75,-2.86263
3560.8974,691.85,-2.86459
3561.4662,691.95,-2.86513
3562.0368,692.05,-2.8669
3562.6044,692.15,-2.87059
3563.1702,692.25,-2.87202
3563.736,692.35,-2.8736
3564.306,692.45,-2.87516
3564.8754,692.55,-2.87703
3565.443,692.65,-2.87875
3566.0136,692.75,-2.88147
3566.5812,692.85,-2.88257
3567.147,692.95,-2.8841
3567.7146,693.05,-2.88669
3568.2828,693.15,-2.88815
3568.8516,693.25,-2.88946
3569.4174,693.35,-2.8906
3569.9856,693.45,-2.89029
3570.5562,693.55,-2.88976
3571.1232,693.65,-2.89127
3571.6932,693.75,-2.89493
3572.2626,693.85,-2.89762
3572.8296,693.95,-2.89962
3573.3978,694.05,-2.90116
3573.969,694.15,-2.90275
3574.5354,694.25,-2.90457
3575.1018,694.35,-2.90722
3575.6694,694.45,-2.90941
3576.2412,694.55,-2.91121
3576.81,694.65,-2.91291
3577.3776,694.75,-2.91218
3577.9476,694.85,-2.91351
3578.5164,694.95,-2.91619
3579.0864,695.05,-2.91726
3579.6552,695.15,-2.91747
3580.2258,695.25,-2.91772
3580.7964,695.35,-2.91716
3581.3634,695.45,-2.91901
3581.9358,695.55,-2.92322
3582.5058,695.65,-2.92419
3583.0716,695.75,-2.9258
3583.6416,695.85,-2.92824
3584.2128,695.95,-2.92916
3584.7816,696.05,-2.9284
3585.3528,696.15,-2.93087
3585.924,696.25,-2.93247
3586.4934,696.35,-2.93403
3587.0646,696.45,-2.93495
3587.6352,696.55,-2.93538
3588.2064,696.65,-2.93644
3588.7752,696.75,-2.93856
3589.3428,696.85,-2.93982
3589.9134,696.95,-2.94029
3590.4834,697.05,-2.94303
3591.0534,697.15,-2.94369
3591.6246,697.25,-2.94152
3592.1946,697.35,-2.94398
3592.7622,697.45,-2.94806
3593.3292,697.55,-2.94818
3593.8998,697.65,-2.94833
3594.465,697.75,-2.94925
3595.035,697.85,-2.9506
3595.6056,697.95,-2.95191
3596.1756,698.05,-2.95321
3596.739,698.15,-2.95506
3597.3078,698.25,-2.95808
3597.8772,698.35,-2.95838
3598.4466,698.45,-2.95987
3599.016,698.55,-2.96014
3599.586,698.65,-2.95832
3600.1578,698.75,-2.95866
3600.7278,698.85,-2.95981
3601.2966,698.95,-2.96128
3601.8678,699.05,-2.96322
3602.4372,699.15,-2.96515
3603.006,699.25,-2.96667
3603.5772,699.35,-2.96607
3604.1478,699.45,-2.96653
3604.719,699.55,-2.96868
3605.2914,699.65,-2.96843
3605.8632,699.75,-2.97056
3606.4368,699.85,-2.97161
3607.0104,699.95,-2.97109
3607.5792,700.05,-2.9704
3608.1492,700.15,-2.97286
3608.7198,700.25,-2.9741
3609.294,700.35,-2.97843
3609.867,700.45,-2.97943
3610.4376,700.55,-2.97858
3611.0082,700.65,-2.98031
3611.5782,700.75,-2.98244
3612.1482,700.85,-2.9854
3612.7176,700.95,-2.98661
3613.2876,701.05,-2.9867
3613.8588,701.15,-2.98871
3614.4306,701.25,-2.9913
3615.0006,701.35,-2.99407
3615.57,701.45,-2.99633
3616.1394,701.55,-2.99669
3616.707,701.65,-2.99739
3617.277,701.75,-2.99847
3617.8464,701.85,-2.99956
3618.4128,701.95,-3.00124
3618.9828,702.05,-3.00306
3619.5522,702.15,-3.00409
3620.1234,702.25,-3.0054
3620.6934,702.35,-3.00701
3621.264,702.45,-3.00757
3621.8352,702.55,-3.00563
3622.4058,702.65,-3.00576
3622.9752,702.75,-3.00775
3623.5464,702.85,-3.01139
3624.117,702.95,-3.01265
3624.687,703.05,-3.01229
3625.2576,703.15,-3.01328
3625.8282,703.25,-3.01542
3626.3988,703.35,-3.01775
3626.9688,703.45,-3.0192
3627.5394,703.55,-3.02095
3628.1112,703.65,-3.02303
3628.683,703.75,-3.02273
3629.2554,703.85,-3.02247
3629.826,703.95,-3.02428
3630.4002,704.05,-3.02577
3630.9738,704.15,-3.02658
3631.5444,704.25,-3.02763
3632.115,704.35,-3.02508
3632.6856,704.45,-3.02618
3633.258,704.55,-3.027
3633.828,704.65,-3.02617
3634.3986,704.75,-3.02625
3634.9698,704.85,-3.02764
3635.5398,704.95,-3.02802
3636.1092,705.05,-3.02931
3636.6792,705.15,-3.03075
3637.251,705.25,-3.03136
3637.8222,705.35,-3.03317
3638.391,705.45,-3.0347
3638.9616,705.55,-3.03515
3639.5334,705.65,-3.03706
3640.1064,705.75,-3.03807
3640.6782,705.85,-3.03662
3641.2488,705.95,-3.03712
3641.8206,706.05,-3.03805
3642.393,706.15,-3.03957
3642.9612,706.25,-3.03982
3643.5342,706.35,-3.042
3644.1048,706.45,-3.04096
3644.6766,706.55,-3.04133
3645.2502,706.65,-3.04495
3645.8214,706.75,-3.04516
3646.3944,706.85,-3.04546
3646.968,706.95,-3.04526
3647.5392,707.05,-3.04771
3648.1128,707.15,-3.04953
3648.687,707.25,-3.04691
3649.2612,707.35,-3.04458
3649.8354,707.45,-3.04472
3650.4078,707.55,-3.04615
3650.9832,707.65,-3.04869
3651.558,707.75,-3.05197
3652.1298,707.85,-3.05342
3652.7022,707.95,-3.05164
3653.2752,708.05,-3.05119
3653.8488,708.15,-3.05271
3654.4224,708.25,-3.05533
3654.9936,708.35,-3.05558
3655.569,708.45,-3.05566
3656.142,708.55,-3.0587
3656.7156,708.65,-3.05811
3657.2892,708.75,-3.0597
3657.8628,708.85,-3.05858
3658.434,708.95,-3.05807
3659.0088,709.05,-3.05984
3659.5794,709.15,-3.06299
3660.1512,709.25,-3.06571
3660.7236,709.35,-3.06636
3661.2966,709.45,-3.06588
3661.8696,709.55,-3.06604
3662.4414,709.65,-3.0657
3663.0132,709.75,-3.06502
3663.5856,709.85,-3.06458
3664.1574,709.95,-3.06507
3664.7292,710.05,-3.06695
3665.3016,710.15,-3.06736
3665.8746,710.25,-3.06829
3666.4458,710.35,-3.07038
3667.017,710.45,-3.07104
3667.5894,710.55,-3.07184
3668.1582,710.65,-3.07263
3668.7324,710.75,-3.07424
3669.3048,710.85,-3.0767
3669.8754,710.95,-3.07817
3670.4478,711.05,-3.07851
3671.0208,711.15,-3.07865
3671.5896,711.25,-3.07924
3672.1608,711.35,-3.07899
3672.7338,711.45,-3.07966
3673.3062,711.55,-3.08056
3673.878,711.65,-3.08409
3674.4498,711.75,-3.08566
3675.0216,711.85,-3.08491
3675.5946,711.95,-3.08543
3676.1682,712.05,-3.08489
3676.7394,712.15,-3.08544
3677.3106,712.25,-3.0872
3677.8794,712.35,-3.08888
3678.4518,712.45,-3.0916
3679.0254,712.55,-3.09344
3679.5984,712.65,-3.0918
3680.1708,712.75,-3.09411
3680.745,712.85,-3.09457
3681.3162,712.95,-3.09511
3681.8898,713.05,-3.09551
3682.464,713.15,-3.09767
3683.0346,713.25,-3.09824
3683.6058,713.35,-3.09832
3684.1806,713.45,-3.09914
3684.7536,713.55,-3.10085
3685.3248,713.65,-3.10279
3685.8936,713.75,-3.10585
3686.466,713.85,-3.10818
3687.0378,713.95,-3.10908
3687.6096,714.05,-3.10955
3688.1838,714.15,-3.10922
3688.7556,714.25,-3.10927
3689.3298,714.35,-3.10963
3689.9058,714.45,-3.11158
3690.4812,714.55,-3.11491
3691.0548,714.65,-3.11392
3691.6296,714.75,-3.11499
3692.2008,714.85,-3.11485
3692.775,714.95,-3.11852
3693.3474,715.05,-3.12009
3693.9198,715.15,-3.11944
3694.491,715.25,-3.1205
3695.0634,715.35,-3.12047
3695.6358,715.45,-3.1222
3696.21,715.55,-3.12505
3696.783,715.65,-3.1251
3697.3566,715.75,-3.12599
3697.9302,715.85,-3.12641
3698.5074,715.95,-3.12593
3699.0822,716.05,-3.12674
3699.657,716.15,-3.12738
3700.2318,716.25,-3.12784
3700.8018,716.35,-3.12939
3701.3742,716.45,-3.13207
3701.9466,716.55,-3.13335
3702.519,716.65,-3.13252
3703.0938,716.75,-3.13428
3703.6668,716.85,-3.13656
3704.2368,716.95,-3.13748
3704.8104,717.05,-3.13858
3705.3834,717.15,-3.13996
3705.957,717.25,-3.14159
3706.5318,717.35,-3.14296
3707.1072,717.45,-3.14382
3707.6814,717.55,-3.14378
3708.2568,717.65,-3.14402
3708.8286,717.75,-3.14394
3709.4034,717.85,-3.14478
3709.98,717.95,-3.14605
3710.5566,718.05,-3.14794
3711.129,718.15,-3.14771
3711.7038,718.25,-3.14869
3712.2792,718.35,-3.14779
3712.854,718.45,-3.1489
3713.4306,718.55,-3.15055
3714.0042,718.65,-3.15023
3714.5784,718.75,-3.15273
3715.1544,718.85,-3.15413
3715.7274,718.95,-3.15547
3716.301,719.05,-3.1571
3716.877,719.15,-3.15765
3717.4512,719.25,-3.1577
3718.0272,719.35,-3.15587
3718.6044,719.45,-3.15748
3719.1786,719.55,-3.15849
3719.7522,719.65,-3.16018
3720.3258,719.75,-3.16271
3720.9,719.85,-3.16191
3721.4772,719.95,-3.16192
3722.0514,720.05,-3.16351
3722.6238,720.15,-3.16472
3723.1974,720.25,-3.16555
3723.7728,720.35,-3.16638
3724.347,720.45,-3.16839
3724.9206,720.55,-3.16846
3725.4954,720.65,-3.16888
3726.0702,720.75,-3.17035
3726.6468,720.85,-3.17122
3727.2228,720.95,-3.17098
3727.7958,721.05,-3.17114
3728.37,721.15,-3.17327
3728.946,721.25,-3.17471
3729.5226,721.35,-3.17385
3730.0974,721.45,-3.17313
3730.6734,721.55,-3.17476
3731.2488,721.65,-3.17547
3731.823,721.75,-3.17749
3732.3996,721.85,-3.1761
3732.9756,721.95,-3.17568
3733.5528,722.05,-3.1788
3734.1276,722.15,-3.18189
3734.7006,722.25,-3.18193
3735.2778,722.35,-3.18232
3735.8532,722.45,-3.18321
3736.4274,722.55,-3.18318
3737.0022,722.65,-3.18158
3737.5776,722.75,-3.18078
3738.1512,722.85,-3.18307
3738.7266,722.95,-3.18496
3739.3026,723.05,-3.18667
3739.8774,723.15,-3.18892
3740.4522,723.25,-3.18932
3741.027,723.35,-3.18945
3741.6012,723.45,-3.19176
3742.1766,723.55,-3.19487
3742.7532,723.65,-3.19667
3743.3262,723.75,-3.19677
3743.8986,723.85,-3.19694
3744.477,723.95,-3.1978
3745.0506,724.05,-3.1987
3745.626,724.15,-3.19999
3746.1996,724.25,-3.20012
3746.7756,724.35,-3.1995
3747.3516,724.45,-3.19951
3747.9252,724.55,-3.20175
3748.5006,724.65,-3.20093
3749.0778,724.75,-3.20155
3749.655,724.85,-3.20249
3750.2316,724.95,-3.2026
3750.8094,725.05,-3.20191
3751.3878,725.15,-3.20273
3751.9656,725.25,-3.20321
3752.5422,725.35,-3.20387
3753.1218,725.45,-3.20432
3753.7008,725.55,-3.20737
3754.278,725.65,-3.2098
3754.857,725.75,-3.21001
3755.4354,725.85,-3.2099
3756.0132,725.95,-3.21011
3756.5892,726.05,-3.2131
3757.1658,726.15,-3.21486
3757.7466,726.25,-3.21279
3758.325,726.35,-3.21241
3758.9016,726.45,-3.21431
3759.48,726.55,-3.21568
3760.0602,726.65,-3.21504
3760.6386,726.75,-3.21531
3761.2164,726.85,-3.21535
3761.7936,726.95,-3.21681
3762.3708,727.05,-3.21789
3762.9516,727.15,-3.21837
3763.5282,727.25,-3.21832
3764.1072,727.35,-3.21961
3764.6862,727.45,-3.22141
3765.2652,727.55,-3.22163
3765.8424,727.65,-3.22323
3766.4202,727.75,-3.22323
3766.9986,727.85,-3.22375
3767.5764,727.95,-3.22609
3768.1548,728.05,-3.2267
3768.7374,728.15,-3.22802
3769.3182,728.25,-3.22967
3769.896,728.35,-3.23027
3770.4732,728.45,-3.23081
3771.0534,728.55,-3.23116
3771.6354,728.65,-3.23157
3772.215,728.75,-3.231
3772.7946,728.85,-3.2297
3773.3778,728.95,-3.23009
3773.9604,729.05,-3.2305
3774.5412,729.15,-3.23038
3775.122,729.25,-3.23075
3775.7016,729.35,-3.23114
3776.28,729.45,-3.23259
3776.8578,729.55,-3.23405
3777.4344,729.65,-3.23822
3778.0158,729.75,-3.23756
3778.5948,729.85,-3.23793
3779.1762,729.95,-3.23815
3779.7546,730.05,-3.23868
3780.3312,730.15,-3.23953
3780.9102,730.25,-3.23924
3781.4886,730.35,-3.2393
3782.0664,730.45,-3.24172
3782.6454,730.55,-3.24351
3783.2256,730.65,-3.24538
3783.8058,730.75,-3.24705
3784.383,730.85,-3.24692
3784.9626,730.95,-3.24585
3785.541,731.05,-3.24587
3786.1158,731.15,-3.24572
3786.6948,731.25,-3.24602
3787.2756,731.35,-3.24694
3787.8546,731.45,-3.24782
3788.4342,731.55,-3.2492
3789.015,731.65,-3.25101
3789.5964,731.75,-3.2523
3790.1784,731.85,-3.25381
3790.7592,731.95,-3.2553
3791.337,732.05,-3.25533
3791.9172,732.15,-3.25562
3792.4992,732.25,-3.25598
3793.0806,732.35,-3.25577
3793.6608,732.45,-3.25451
3794.2422,732.55,-3.25564
3794.8218,732.65,-3.2574
3795.402,732.75,-3.25886
3795.9816,732.85,-3.25889
3796.5594,732.95,-3.26082
3797.1408,733.05,-3.26053
3797.721,733.15,-3.26052
3798.3036,733.25,-3.25879
3798.8844,733.35,-3.25833
3799.4652,733.45,-3.25894
3800.0454,733.55,-3.26124
3800.6226,733.65,-3.26111
3801.2046,733.75,-3.26076
3801.783,733.85,-3.2611
3802.365,733.95,-3.26105
3802.9434,734.05,-3.26331
3803.5236,734.15,-3.26642
3804.105,734.25,-3.26899
3804.6846,734.35,-3.27012
3805.2642,734.45,-3.27087
3805.845,734.55,-3.27071
3806.424,734.65,-3.27039
3807.003,734.75,-3.27086
3807.585,734.85,-3.27167
3808.1658,734.95,-3.27385
3808.7466,735.05,-3.27497
3809.3286,735.15,-3.27512
3809.9094,735.25,-3.27655
3810.489,735.35,-3.27887
3811.0686,735.45,-3.27949
3811.65,735.55,-3.28032
3812.229,735.65,-3.28038
3812.8104,735.75,-3.27947
3813.3954,735.85,-3.27925
3813.9768,735.95,-3.27978
3814.5594,736.05,-3.28065
3815.1384,736.15,-3.28289
3815.7204,736.25,-3.28322
3816.3,736.35,-3.28281
3816.882,736.45,-3.28433
3817.4646,736.55,-3.28583
3818.0448,736.65,-3.28398
3818.6268,736.75,-3.28637
3819.2094,736.85,-3.28868
3819.792,736.95,-3.291
3820.3728,737.05,-3.29124
3820.9572,737.15,-3.28983
3821.5398,737.25,-3.28857
3822.1224,737.35,-3.29021
3822.705,737.45,-3.29122
3823.2858,737.55,-3.29356
3823.8672,737.65,-3.29651
3824.4486,737.75,-3.29568
3825.03,737.85,-3.29331
3825.6096,737.95,-3.29277
3826.1886,738.05,-3.29557
3826.7694,738.15,-3.2971
3827.352,738.25,-3.29517
3827.9352,738.35,-3.29561
3828.519,738.45,-3.29697
3829.1028,738.55,-3.29632
3829.6842,738.65,-3.29695
3830.2668,738.75,-3.29957
3830.8518,738.85,-3.30105
3831.4344,738.95,-3.30168
3832.0176,739.05,-3.30178
3832.599,739.15,-3.30386
3833.1816,739.25,-3.30511
3833.7636,739.35,-3.30539
3834.3474,739.45,-3.30708
3834.9288,739.55,-3.30736
3835.5126,739.65,-3.3073
3836.0964,739.75,-3.30839
3836.6802,739.85,-3.30863
3837.2628,739.95,-3.30999
3837.8466,740.05,-3.31069
3838.4292,740.15,-3.31369
3839.013,740.25,-3.31443
3839.595,740.35,-3.3134
3840.1764,740.45,-3.31341
3840.7578,740.55,-3.31532
3841.3386,740.65,-3.316
3841.923,740.75,-3.31706
3842.5068,740.85,-3.31885
3843.0876,740.95,-3.31953
3843.6708,741.05,-3.31958
3844.2534,741.15,-3.32143
3844.8366,741.25,-3.32224
3845.4234,741.35,-3.32222
3846.0042,741.45,-3.32387
3846.5844,741.55,-3.32545
3847.1682,741.65,-3.32731
3847.752,741.75,-3.32854
3848.3352,741.85,-3.32894
3848.9202,741.95,-3.3287
3849.504,742.05,-3.32953
3850.0872,742.15,-3.33106
3850.6686,742.25,-3.33217
3851.2524,742.35,-3.33165
3851.835,742.45,-3.331
3852.4188,742.55,-3.33064
3853.0044,742.65,-3.33278
3853.587,742.75,-3.33466
3854.1702,742.85,-3.33546
3854.7528,742.95,-3.33719
3855.336,743.05,-3.34006
3855.9192,743.15,-3.33976
3856.4988,743.25,-3.34068
3857.085,743.35,-3.33909
3857.67,743.45,-3.34209
3858.2526,743.55,-3.34431
3858.8394,743.65,-3.34419
3859.4238,743.75,-3.34596
3860.0052,743.85,-3.34682
3860.5866,743.95,-3.34772
3861.1698,744.05,-3.34867
3861.7542,744.15,-3.34949
3862.338,744.25,-3.34865
3862.9224,744.35,-3.3485
3863.508,744.45,-3.34893
3864.0936,744.55,-3.34952
3864.6792,744.65,-3.3491
3865.263,744.75,-3.35007
3865.848,744.85,-3.35197
3866.4336,744.95,-3.35254
3867.018,745.05,-3.35445
3867.6042,745.15,-3.35601
3868.1898,745.25,-3.3566
3868.776,745.35,-3.35701
3869.361,745.45,-3.35841
3869.9412,745.55,-3.36083
3870.5238,745.65,-3.36064
3871.1082,745.75,-3.36153
3871.6908,745.85,-3.36172
3872.2776,745.95,-3.36342
3872.865,746.05,-3.36691
3873.4494,746.15,-3.36842
3874.029,746.25,-3.36829
3874.6104,746.35,-3.36825
3875.1942,746.45,-3.36872
3875.7762,746.55,-3.37186
3876.3564,746.65,-3.37174
3876.9402,746.75,-3.37228
3877.5234,746.85,-3.37171
3878.1048,746.95,-3.37155
3878.6844,747.05,-3.37294
3879.2688,747.15,-3.37357
3879.8532,747.25,-3.37439
3880.434,747.35,-3.37514
3881.0148,747.45,-3.37676
3881.5962,747.55,-3.37755
3882.1776,747.65,-3.37642
3882.7596,747.75,-3.37668
3883.341,747.85,-3.37885
3883.926,747.95,-3.38075
3884.5086,748.05,-3.38254
3885.087,748.15,-3.38213
3885.6666,748.25,-3.37975
3886.2504,748.35,-3.37954
3886.8378,748.45,-3.38015
3887.4228,748.55,-3.38024
3888.0042,748.65,-3.38081
3888.5874,748.75,-3.38084
3889.1694,748.85,-3.38107
3889.7508,748.95,-3.38277
3890.3334,749.05,-3.38541
3890.9184,749.15,-3.38747
3891.5016,749.25,-3.3881
3892.083,749.35,-3.38789
3892.6656,749.45,-3.38882
3893.25,749.55,-3.3892
3893.835,749.65,-3.38967
3894.4176,749.75,-3.39064
3895.0038,749.85,-3.3908
3895.5912,749.95,-3.39402
3896.1744,750.05,-3.39566
3896.7546,750.15,-3.39734
3897.3396,750.25,-3.39673
3897.9246,750.35,-3.39581
3898.5102,750.45,-3.3962
3899.094,750.55,-3.39882
3899.6736,750.65,-3.39877
3900.2628,750.75,-3.39873
3900.8484,750.85,-3.4007
3901.4364,750.95,-3.4012
3902.0208,751.05,-3.40179
3902.6046,751.15,-3.40352
3903.1884,751.25,-3.40635
3903.7716,751.35,-3.40825
3904.3572,751.45,-3.40906
3904.9428,751.55,-3.41033
3905.5272,751.65,-3.41167
3906.1134,751.75,-3.4137
3906.7014,751.85,-3.41415
3907.2894,751.95,-3.41333
3907.8732,752.05,-3.41274
3908.457,752.15,-3.41356
3909.0444,752.25,-3.41728
3909.63,752.35,-3.42002
3910.2162,752.45,-3.41911
3910.8024,752.55,-3.4181
3911.3856,752.65,-3.41833
3911.9712,752.75,-3.4195
3912.5562,752.85,-3.41982
3913.1394,752.95,-3.41887
3913.7244,753.05,-3.42002
3914.31,753.15,-3.42057
3914.8986,753.25,-3.42265
3915.4842,753.35,-3.42404
3916.0716,753.45,-3.42571
3916.6584,753.55,-3.42728
3917.2434,753.65,-3.42901
3917.8284,753.75,-3.42864
3918.4116,753.85,-3.42957
3918.996,753.95,-3.43004
3919.5798,754.05,-3.43
3920.1648,754.15,-3.42966
3920.7486,754.25,-3.42962
3921.3336,754.35,-3.43134
3921.9198,754.45,-3.43284
3922.5054,754.55,-3.43252
3923.0898,754.65,-3.43328
3923.6772,754.75,-3.43411
3924.2628,754.85,-3.43534
3924.8484,754.95,-3.43532
3925.4352,755.05,-3.43686
3926.0226,755.15,-3.43972
3926.6076,755.25,-3.4398
3927.1902,755.35,-3.43907
3927.7734,755.45,-3.44374
3928.3608,755.55,-3.44685
3928.9452,755.65,-3.44799
3929.529,755.75,-3.44939
3930.1128,755.85,-3.44851
3930.6978,755.95,-3.44789
3931.2834,756.05,-3.44842
3931.8696,756.15,-3.44828
3932.454,756.25,-3.44907
3933.0396,756.35,-3.44938
3933.627,756.45,-3.44899
3934.2114,756.55,-3.45019
3934.7958,756.65,-3.45123
3935.382,756.75,-3.45196
3935.9658,756.85,-3.45152
3936.5496,756.95,-3.4524
3937.1346,757.05,-3.45695
3937.7196,757.15,-3.45833
3938.3034,757.25,-3.45865
3938.8872,757.35,-3.45742
3939.4728,757.45,-3.45834
3940.0602,757.55,-3.46039
3940.6488,757.65,-3.46026
3941.2332,757.75,-3.46121
3941.8206,757.85,-3.46205
3942.4074,757.95,-3.46327
3942.9936,758.05,-3.46503
3943.5798,758.15,-3.4667
3944.1636,758.25,-3.46751
3944.7486,758.35,-3.46777
3945.3342,758.45,-3.46773
3945.9156,758.55,-3.46909
3946.5006,758.65,-3.47056
3947.0868,758.75,-3.47134
3947.6706,758.85,-3.47369
3948.2538,758.95,-3.47364
3948.837,759.05,-3.47411
3949.422,759.15,-3.47608
3950.007,759.25,-3.47734
3950.592,759.35,-3.47679
3951.1764,759.45,-3.47543
3951.7632,759.55,-3.4753
3952.35,759.65,-3.4759
3952.9314,759.75,-3.47626
3953.5152,759.85,-3.47778
3954.102,759.95,-3.47969
3954.687,760.05,-3.47927
3955.272,760.15,-3.47949
3955.857,760.25,-3.48128
3956.4438,760.35,-3.4832
3957.0282,760.45,-3.48478
3957.6084,760.55,-3.48523
3958.1916,760.65,-3.48624
3958.779,760.75,-3.48727
3959.3628,760.85,-3.48773
3959.9472,760.95,-3.48809
3960.5328,761.05,-3.48773
3961.1202,761.15,-3.49001
3961.7088,761.25,-3.49228
3962.2956,761.35,-3.49145
3962.8812,761.45,-3.4912
3963.468,761.55,-3.49167
3964.0554,761.65,-3.49092
3964.6392,761.75,-3.49081
3965.2248,761.85,-3.49204
3965.811,761.95,-3.49274
3966.3948,762.05,-3.49282
3966.9792,762.15,-3.49521
3967.5636,762.25,-3.49686
3968.1504,762.35,-3.49742
3968.736,762.45,-3.49708
3969.3228,762.55,-3.49795
3969.9114,762.65,-3.49702
3970.4994,762.75,-3.49932
3971.0844,762.85,-3.50361
3971.67,762.95,-3.50385
3972.2538,763.05,-3.50466
3972.8394,763.15,-3.50353
3973.4262,763.25,-3.50246
3974.0106,763.35,-3.50358
3974.5974,763.45,-3.50326
3975.1818,763.55,-3.50524
3975.7668,763.65,-3.50517
3976.3506,763.75,-3.50519
3976.9362,763.85,-3.50514
3977.5218,763.95,-3.50588
3978.1092,764.05,-3.50721
3978.6948,764.15,-3.5077
3979.2822,764.25,-3.50978
3979.8708,764.35,-3.5104
3980.457,764.45,-3.50945
3981.0426,764.55,-3.51022
3981.627,764.65,-3.51045
3982.2102,764.75,-3.51138
3982.7982,764.85,-3.51292
3983.3874,764.95,-3.51381
3983.9736,765.05,-3.51447
3984.5598,765.15,-3.51357
3985.1472,765.25,-3.51371
3985.7346,765.35,-3.51436
3986.3226,765.45,-3.51562
3986.9076,765.55,-3.51579
3987.4938,765.65,-3.51588
3988.0842,765.75,-3.51643
3988.671,765.85,-3.51843
3989.2584,765.95,-3.51802
3989.8428,766.05,-3.51941
3990.4278,766.15,-3.5204
3991.0104,766.25,-3.52069
3991.5966,766.35,-3.52226
3992.1798,766.45,-3.52416
3992.766,766.55,-3.52384
3993.354,766.65,-3.52531
3993.9414,766.75,-3.52614
3994.5264,766.85,-3.52672
3995.1108,766.95,-3.52648
3995.6952,767.05,-3.52527
3996.282,767.15,-3.52556
3996.8694,767.25,-3.5279
3997.458,767.35,-3.52904
3998.0442,767.45,-3.53181
3998.6286,767.55,-3.53313
3999.2142,767.65,-3.533
3999.8016,767.75,-3.53164
4000.3866,767.85,-3.53088
4000.9734,767.95,-3.5318
4001.5608,768.05,-3.5327
4002.1494,768.15,-3.53403
4002.7356,768.25,-3.53497
4003.3248,768.35,-3.53655
4003.9146,768.45,-3.53723
4004.502,768.55,-3.53728
4005.09,768.65,-3.53848
4005.6756,768.75,-3.53871
4006.2588,768.85,-3.53877
4006.8462,768.95,-3.53912
4007.436,769.05,-3.5391
4008.0258,769.15,-3.5387
4008.6138,769.25,-3.53954
4009.2018,769.35,-3.54113
4009.7898,769.45,-3.54017
4010.376,769.55,-3.53961
4010.9634,769.65,-3.54174
4011.5514,769.75,-3.54437
4012.1394,769.85,-3.5454
4012.7262,769.95,-3.54585
4013.3124,770.05,-3.54605
4013.8974,770.15,-3.54584
4014.4848,770.25,-3.54632
4015.074,770.35,-3.54824
4015.662,770.45,-3.54828
4016.2476,770.55,-3.54821
4016.8338,770.65,-3.54842
4017.42,770.75,-3.55059
4018.0068,770.85,-3.55143
4018.596,770.95,-3.55024
4019.1858,771.05,-3.55123
4019.7768,771.15,-3.55235
4020.363,771.25,-3.55228
4020.9474,771.35,-3.55314
4021.5324,771.45,-3.55548
4022.1192,771.55,-3.557
4022.7084,771.65,-3.55649
4023.297,771.75,-3.55525
4023.8874,771.85,-3.55484
4024.4748,771.95,-3.55521
4025.0622,772.05,-3.55765
4025.6484,772.15,-3.56013
4026.2394,772.25,-3.56152
4026.828,772.35,-3.56174
4027.4166,772.45,-3.56121
4028.0076,772.55,-3.56237
4028.5962,772.65,-3.5613
4029.1872,772.75,-3.56113
4029.777,772.85,-3.56232
4030.3674,772.95,-3.56168
4030.9578,773.05,-3.56197
4031.5488,773.15,-3.56437
4032.1392,773.25,-3.56531
4032.7284,773.35,-3.56532
4033.3188,773.45,-3.56464
4033.911,773.55,-3.56309
4034.5002,773.65,-3.56557
4035.0876,773.75,-3.56693
4035.6774,773.85,-3.56633
4036.2666,773.95,-3.56797
4036.8552,774.05,-3.56989
4037.4468,774.15,-3.57075
4038.039,774.25,-3.57154
4038.6264,774.35,-3.57268
4039.215,774.45,-3.57247
4039.8048,774.55,-3.57161
4040.3916,774.65,-3.57077
4040.9796,774.75,-3.57135
4041.5694,774.85,-3.57279
4042.158,774.95,-3.57306
4042.7484,775.05,-3.57364
4043.337,775.15,-3.57303
4043.9244,775.25,-3.57516
4044.5106,775.35,-3.57769
4045.0986,775.45,-3.57915
4045.689,775.55,-3.57931
4046.277,775.65,-3.57885
4046.8644,775.75,-3.57944
4047.4542,775.85,-3.57939
4048.0404,775.95,-3.58005
4048.6284,776.05,-3.5814
4049.217,776.15,-3.58364
4049.8056,776.25,-3.58376
4050.3954,776.35,-3.58303
4050.9852,776.45,-3.58157
4051.575,776.55,-3.58218
4052.1642,776.65,-3.58218
4052.754,776.75,-3.58396
4053.3456,776.85,-3.58453
4053.9348,776.95,-3.58419
4054.524,777.05,-3.58501
4055.112,777.15,-3.58643
4055.7012,777.25,-3.58851
4056.2928,777.35,-3.58917
4056.8826,777.45,-3.58944
4057.4712,777.55,-3.58996
4058.0616,777.65,-3.59118
4058.649,777.75,-3.5935
4059.2406,777.85,-3.58947
4059.8304,777.95,-3.58907
4060.422,778.05,-3.59158
4061.0124,778.15,-3.59092
4061.6004,778.25,-3.59161
4062.1914,778.35,-3.59022
4062.7788,778.45,-3.59056
4063.3686,778.55,-3.59326
4063.9596,778.65,-3.5952
4064.55,778.75,-3.59539
4065.141,778.85,-3.59317
4065.7326,778.95,-3.59211
4066.3248,779.05,-3.59303
4066.9152,779.15,-3.59317
4067.5044,779.25,-3.59379
4068.0954,779.35,-3.59286
4068.6864,779.45,-3.59383
4069.2768,779.55,-3.59512
4069.8696,779.65,-3.59646
4070.4618,779.75,-3.59791
4071.054,779.85,-3.59838
4071.645,779.95,-3.59956
4072.2348,780.05,-3.60029
4072.827,780.15,-3.60048
4073.4186,780.25,-3.60088
4074.0126,780.35,-3.60062
4074.606,780.45,-3.59964
4075.197,780.55,-3.59903
4075.7904,780.65,-3.59807
4076.379,780.75,-3.59926
4076.9688,780.85,-3.60113
4077.5616,780.95,-3.60156
4078.1508,781.05,-3.60146
4078.74,781.15,-3.60151
4079.3316,781.25,-3.60117
4079.9244,781.35,-3.60158
4080.513,781.45,-3.60343
4081.1028,781.55,-3.60351
4081.695,781.65,-3.60423
4082.2872,781.75,-3.60458
4082.8776,781.85,-3.60431
4083.4662,781.95,-3.60453
4084.0584,782.05,-3.6036
4084.6518,782.15,-3.60331
4085.2434,782.25,-3.60669
4085.8302,782.35,-3.60788
4086.42,782.45,-3.60835
4087.0116,782.55,-3.60805
4087.6014,782.65,-3.60897
4088.19,782.75,-3.60983
4088.7828,782.85,-3.61032
4089.3762,782.95,-3.60871
4089.966,783.05,-3.60664
4090.5558,783.15,-3.60753
4091.1444,783.25,-3.60841
4091.7354,783.35,-3.60929
4092.327,783.45,-3.60989
4092.921,783.55,-3.60953
4093.5126,783.65,-3.60977
4094.1006,783.75,-3.61064
4094.6898,783.85,-3.61101
4095.2796,783.95,-3.60965
4095.873,784.05,-3.60838
4096.4646,784.15,-3.61035
4097.055,784.25,-3.61056
4097.6478,784.35,-3.6113
4098.24,784.45,-3.61118
4098.8322,784.55,-3.61098
4099.422,784.65,-3.61186
4100.0148,784.75,-3.61398
4100.6082,784.85,-3.61456
4101.1992,784.95,-3.61307
4101.789,785.05,-3.61262
4102.38,785.15,-3.61304
4102.9704,785.25,-3.6141
4103.5632,785.35,-3.61184
4104.156,785.45,-3.61347
4104.7494,785.55,-3.61731
4105.341,785.65,-3.61584
4105.9332,785.75,-3.61504
4106.5272,785.85,-3.61633
4107.1224,785.95,-3.6175
4107.7158,786.05,-3.61837
4108.3056,786.15,-3.61732
4108.899,786.25,-3.61759
4109.493,786.35,-3.61815
4110.0834,786.45,-3.6175
4110.6768,786.55,-3.61765
4111.2714,786.65,-3.61754
4111.8642,786.75,-3.61876
4112.4576,786.85,-3.61917
4113.0498,786.95,-3.61861
4113.6432,787.05,-3.61967
4114.239,787.15,-3.62108
4114.8342,787.25,-3.62231
4115.4282,787.35,-3.62205
4116.0216,787.45,-3.62202
4116.6144,787.55,-3.62212
4117.206,787.65,-3.62169
4117.7994,787.75,-3.62127
4118.3958,787.85,-3.62083
4118.9892,787.95,-3.62309
4119.579,788.05,-3.62408
4120.1706,788.15,-3.62365
4120.7664,788.25,-3.62533
4121.3592,788.35,-3.62664
4121.952,788.45,-3.62608
4122.5484,788.55,-3.62417
4123.1424,788.65,-3.62571
4123.7328,788.75,-3.62598
4124.3256,788.85,-3.62563
4124.9166,788.95,-3.62608
4125.5118,789.05,-3.62711
4126.1076,789.15,-3.62593
4126.7016,789.25,-3.62748
4127.295,789.35,-3.62717
4127.889,789.45,-3.6268
4128.4848,789.55,-3.62664
4129.08,789.65,-3.62725
4129.6764,789.75,-3.62752
4130.2722,789.85,-3.62827
4130.8662,789.95,-3.62934
4131.4608,790.05,-3.62899
4132.059,790.15,-3.62762
4132.653,790.25,-3.62705
4133.2464,790.35,-3.62874
4133.8452,790.45,-3.62969
4134.4398,790.55,-3.62916
4135.0338,790.65,-3.62918
4135.6296,790.75,-3.63078
4136.2272,790.85,-3.6297
4136.8248,790.95,-3.62984
4137.4236,791.05,-3.63039
4138.0188,791.15,-3.62988
4138.6146,791.25,-3.62916
4139.2086,791.35,-3.63103
4139.805,791.45,-3.63182
4140.4014,791.55,-3.63149
4140.9966,791.65,-3.62823
4141.5918,791.75,-3.62961
4142.1858,791.85,-3.63011
4142.7822,791.95,-3.63108
4143.3732,792.05,-3.63346
4143.9696,792.15,-3.63394
4144.5642,792.25,-3.63269
4145.1606,792.35,-3.63392
4145.7576,792.45,-3.6348
4146.351,792.55,-3.6369
4146.9456,792.65,-3.6384
4147.5408,792.75,-3.63717
4148.1378,792.85,-3.63739
4148.733,792.95,-3.63768
4149.3288,793.05,-3.63706
4149.9258,793.15,-3.63814
4150.5222,793.25,-3.6397
4151.1168,793.35,-3.63997
4151.7102,793.45,-3.64115
4152.3054,793.55,-3.64086
4152.9024,793.65,-3.64165
4153.5,793.75,-3.6426
4154.0982,793.85,-3.64207
4154.6958,793.95,-3.6408
4155.2898,794.05,-3.64067
4155.8868,794.15,-3.64087
4156.482,794.25,-3.64177
4157.0802,794.35,-3.64184
4157.6766,794.45,-3.64176
4158.273,794.55,-3.64228
4158.8682,794.65,-3.6428
4159.4664,794.75,-3.64416
4160.0646,794.85,-3.6458
4160.6598,794.95,-3.64593
4161.2574,795.05,-3.64585
4161.8544,795.15,-3.64606
4162.4496,795.25,-3.64673
4163.0472,795.35,-3.64588
4163.643,795.45,-3.64613
4164.2424,795.55,-3.64736
4164.8418,795.65,-3.64802
4165.4376,795.75,-3.64898
4166.0316,795.85,-3.6507
4166.6268,795.95,-3.64999
4167.2226,796.05,-3.65036
4167.8178,796.15,-3.64985
4168.4178,796.25,-3.65082
4169.016,796.35,-3.65246
4169.6106,796.45,-3.65146
4170.2076,796.55,-3.65158
4170.8034,796.65,-3.65216
4171.3998,796.75,-3.65348
4171.9962,796.85,-3.65466
4172.5908,796.95,-3.65488
4173.1854,797.05,-3.65588
4173.7806,797.15,-3.65481
4174.3758,797.25,-3.65434
4174.9716,797.35,-3.65531
4175.5656,797.45,-3.65567
4176.1632,797.55,-3.65657
4176.7584,797.65,-3.6578
4177.3518,797.75,-3.65888
4177.9452,797.85,-3.65745
4178.541,797.95,-3.65709
4179.1368,798.05,-3.6579
4179.7326,798.15,-3.65851
4180.3302,798.25,-3.65994
4180.9254,798.35,-3.65943
4181.52,798.45,-3.66005
4182.1158,798.55,-3.66072
4182.7122,798.65,-3.65968
4183.3074,798.75,-3.65937
4183.9044,798.85,-3.6605
4184.499,798.95,-3.66194
4185.0954,799.05,-3.66155
4185.6924,799.15,-3.6623
4186.29,799.25,-3.66379
4186.8894,799.35,-3.66338
4187.484,799.45,-3.66208
4188.0798,799.55,-3.66251
4188.678,799.65,-3.66441
4189.2744,799.75,-3.66607
4189.8708,799.85,-3.66609
4190.4684,799.95,-3.66585
4191.066,800.05,-3.66603
4191.6642,800.15,-3.6684
4192.2618,800.25,-3.67028
4192.857,800.35,-3.66854
4193.4522,800.45,-3.6675
4194.048,800.55,-3.66922
4194.6468,800.65,-3.67101
4195.245,800.75,-3.67065
4195.8426,800.85,-3.6716
4196.4396,800.95,-3.67343
4197.036,801.05,-3.67382
4197.6336,801.15,-3.67312
4198.23,801.25,-3.67395
4198.8264,801.35,-3.67617
4199.4222,801.45,-3.67714
4200.0204,801.55,-3.67843
4200.6174,801.65,-3.67938
4201.2102,801.75,-3.67969
4201.803,801.85,-3.6811
4202.4012,801.95,-3.68173
4202.9982,802.05,-3.68129
4203.594,802.15,-3.68288
4204.1904,802.25,-3.68359
4204.785,802.35,-3.684
4205.3796,802.45,-3.68501
4205.9748,802.55,-3.68567
4206.5706,802.65,-3.68584
4207.1658,802.75,-3.68488
4207.761,802.85,-3.68614
4208.3574,802.95,-3.68891
4208.952,803.05,-3.68685
4209.5496,803.15,-3.6862
4210.1472,803.25,-3.68685
4210.7454,803.35,-3.68743
4211.3412,803.45,-3.68762
4211.937,803.55,-3.68839
4212.5346,803.65,-3.68885
4213.1328,803.75,-3.68866
4213.7322,803.85,-3.68778
4214.3328,803.95,-3.68925
4214.931,804.05,-3.68968
4215.5256,804.15,-3.69052
4216.122,804.25,-3.69032
4216.7178,804.35,-3.69124
4217.316,804.45,-3.69206
4217.9154,804.55,-3.69342
4218.5166,804.65,-3.69463
4219.1178,804.75,-3.6964
4219.716,804.85,-3.69604
4220.3106,804.95,-3.69573
4220.9088,805.05,-3.69604
4221.5094,805.15,-3.69786
4222.1058,805.25,-3.69877
4222.6998,805.35,-3.69817
4223.2926,805.45,-3.69895
4223.8896,805.55,-3.69993
4224.4848,805.65,-3.70265
4225.0812,805.75,-3.70567
4225.6764,805.85,-3.70439
4226.2746,805.95,-3.70309
4226.8698,806.05,-3.70227
4227.4662,806.15,-3.70135
4228.065,806.25,-3.70321
4228.665,806.35,-3.70441
4229.2614,806.45,-3.70535
4229.8608,806.55,-3.70699
4230.4572,806.65,-3.70628
4231.0524,806.75,-3.70792
4231.6476,806.85,-3.70738
4232.244,806.95,-3.70928
4232.8452,807.05,-3.71018
4233.4416,807.15,-3.71163
4234.0374,807.25,-3.71168
4234.635,807.35,-3.71056
4235.232,807.45,-3.71045
4235.8296,807.55,-3.71428
4236.4272,807.65,-3.71556
4237.0272,807.75,-3.7143
4237.6236,807.85,-3.71473
4238.2206,807.95,-3.71532
4238.8146,808.05,-3.7158
4239.4134,808.15,-3.71548
4240.0122,808.25,-3.71619
4240.6068,808.35,-3.71732
4241.2044,808.45,-3.71729
4241.802,808.55,-3.71823
4242.3984,808.65,-3.71843
4242.9954,808.75,-3.7187
4243.5918,808.85,-3.71902
4244.19,808.95,-3.71992
4244.7846,809.05,-3.7205
4245.3768,809.15,-3.72208
4245.9702,809.25,-3.72443
4246.5672,809.35,-3.72374
4247.1642,809.45,-3.72342
4247.7618,809.55,-3.72433
4248.3618,809.65,-3.72459
4248.9564,809.75,-3.72485
4249.5528,809.85,-3.72422
4250.1498,809.95,-3.72417
4250.7498,810.05,-3.72665
4251.3462,810.15,-3.72878
4251.9432,810.25,-3.73064
4252.5378,810.35,-3.72841
4253.1354,810.45,-3.72925
4253.73,810.55,-3.7308
4254.3258,810.65,-3.73015
4254.9204,810.75,-3.73161
4255.515,810.85,-3.73256
4256.112,810.95,-3.73227
4256.7072,811.05,-3.7321
4257.3066,811.15,-3.73395
4257.9036,811.25,-3.73401
4258.503,811.35,-3.73424
4259.0976,811.45,-3.73479
4259.6976,811.55,-3.73595
4260.2934,811.65,-3.73746
4260.8886,811.75,-3.73849
4261.4862,811.85,-3.73813
4262.0826,811.95,-3.73922
4262.6784,812.05,-3.73966
4263.2718,812.15,-3.73953
4263.8676,812.25,-3.74023
4264.464,812.35,-3.73926
4265.0598,812.45,-3.74052
4265.655,812.55,-3.74157
4266.2514,812.65,-3.74497
4266.8502,812.75,-3.74493
4267.4484,812.85,-3.74414
4268.0478,812.95,-3.74306
4268.6436,813.05,-3.74168
4269.2418,813.15,-3.74407
4269.8388,813.25,-3.74562
4270.4388,813.35,-3.74664
4271.04,813.45,-3.74585
4271.6376,813.55,-3.74613
4272.2292,813.65,-3.74696
4272.8244,813.75,-3.74861
4273.4232,813.85,-3.7503
4274.022,813.95,-3.75091
4274.6166,814.05,-3.74983
4275.2142,814.15,-3.74963
4275.8112,814.25,-3.75311
4276.4106,814.35,-3.75443
4277.007,814.45,-3.75483
4277.6046,814.55,-3.75543
4278.2046,814.65,-3.75657
4278.8028,814.75,-3.75734
4279.3992,814.85,-3.75765
4279.9962,814.95,-3.75767
4280.5908,815.05,-3.75754
4281.1872,815.15,-3.75633
4281.7842,815.25,-3.75605
4282.3794,815.35,-3.75728
4282.9746,815.45,-3.75749
4283.5698,815.55,-3.75823
4284.1662,815.65,-3.7598
4284.7668,815.75,-3.76062
4285.3662,815.85,-3.75787
4285.9626,815.95,-3.75717
4286.5572,816.05,-3.75847
4287.1554,816.15,-3.7599
4287.7512,816.25,-3.76114
4288.3476,816.35,-3.76109
4288.9446,816.45,-3.76099
4289.5422,816.55,-3.76217
4290.1398,816.65,-3.76505
4290.7362,816.75,-3.76459
4291.3326,816.85,-3.76556
4291.9314,816.95,-3.76776
4292.5284,817.05,-3.76622
4293.1266,817.15,-3.76491
4293.7278,817.25,-3.76414
4294.3272,817.35,-3.76522
4294.9242,817.45,-3.76767
4295.523,817.55,-3.76783
4296.1206,817.65,-3.76813
4296.7164,817.75,-3.76632
4297.3128,817.85,-3.76454
4297.9092,817.95,-3.76587
4298.5068,818.05,-3.76883
4299.1062,818.15,-3.76992
4299.7026,818.25,-3.76948
4300.2996,818.35,-3.76907
4300.899,818.45,-3.77063
4301.4948,818.55,-3.77154
4302.0894,818.65,-3.77078
4302.6864,818.75,-3.77246
4303.2822,818.85,-3.77435
4303.8756,818.95,-3.77679
4304.4684,819.05,-3.77769
4305.0636,819.15,-3.77636
4305.6576,819.25,-3.7776
4306.2504,819.35,-3.7794
4306.845,819.45,-3.7796
4307.4402,819.55,-3.77864
4308.0348,819.65,-3.77785
4308.63,819.75,-3.77816
4309.2258,819.85,-3.77809
4309.8222,819.95,-3.77805
4310.418,820.05,-3.78007
4311.0144,820.15,-3.78131
4311.6108,820.25,-3.78111
4312.2078,820.35,-3.78153
4312.8054,820.45,-3.7809
4313.4006,820.55,-3.78111
4313.9976,820.65,-3.7813
4314.5976,820.75,-3.78222
4315.1946,820.85,-3.7838
4315.7928,820.95,-3.78336
4316.394,821.05,-3.78304
4316.9928,821.15,-3.78364
4317.5916,821.25,-3.78526
4318.191,821.35,-3.78612
4318.7862,821.45,-3.78604
4319.3832,821.55,-3.78586
4319.9838,821.65,-3.78628
4320.582,821.75,-3.78541
4321.1796,821.85,-3.78453
4321.7796,821.95,-3.7851
4322.3796,822.05,-3.78436
4322.9778,822.15,-3.78419
4323.5772,822.25,-3.78494
4324.176,822.35,-3.78607
4324.776,822.45,-3.78682
4325.3736,822.55,-3.78545
4325.9724,822.65,-3.78519
4326.5688,822.75,-3.78754
4327.1658,822.85,-3.78945
4327.764,822.95,-3.78996
4328.3598,823.05,-3.78986
4328.958,823.15,-3.79105
4329.558,823.25,-3.79143
4330.155,823.35,-3.79121
4330.7502,823.45,-3.79136
4331.3514,823.55,-3.79037
4331.949,823.65,-3.78993
4332.5442,823.75,-3.7912
4333.1412,823.85,-3.79285
4333.7376,823.95,-3.79459
4334.3322,824.05,-3.79549
4334.9298,824.15,-3.79564
4335.5298,824.25,-3.79533
4336.1268,824.35,-3.79373
4336.7226,824.45,-3.79329
4337.319,824.55,-3.79481
4337.9154,824.65,-3.79538
4338.5136,824.75,-3.79671
4339.1136,824.85,-3.79724
4339.7118,824.95,-3.79751
4340.3082,825.05,-3.79795
4340.9082,825.15,-3.79667
4341.504,825.25,-3.79685
4342.0992,825.35,-3.79725
4342.6974,825.45,-3.79766
4343.2956,825.55,-3.79731
4343.8932,825.65,-3.79839
4344.492,825.75,-3.79877
4345.0902,825.85,-3.79679
4345.6896,825.95,-3.79766
4346.2926,826.05,-3.79792
4346.8956,826.15,-3.79843
4347.4956,826.25,-3.79898
4348.0914,826.35,-3.79928
4348.6896,826.45,-3.79812
4349.2878,826.55,-3.80026
4349.8848,826.65,-3.80069
4350.4854,826.75,-3.80096
4351.0836,826.85,-3.8019
4351.6818,826.95,-3.80067
4352.283,827.05,-3.80034
4352.8806,827.15,-3.8009
4353.4782,827.25,-3.80079
4354.0758,827.35,-3.8014
4354.677,827.45,-3.80344
4355.2782,827.55,-3.805
4355.8812,827.65,-3.80456
4356.4836,827.75,-3.80385
4357.0818,827.85,-3.80447
4357.6824,827.95,-3.80437
4358.2794,828.05,-3.80477
4358.8788,828.15,-3.8042
4359.4758,828.25,-3.80231
4360.0704,828.35,-3.80416
4360.6716,828.45,-3.80638
4361.2698,828.55,-3.80715
4361.8704,828.65,-3.8069
4362.4704,828.75,-3.80537
4363.068,828.85,-3.80669
4363.665,828.95,-3.80612
4364.2638,829.05,-3.80687
4364.8584,829.15,-3.80839
4365.4566,829.25,-3.80755
4366.056,829.35,-3.80735
4366.653,829.45,-3.80734
4367.2542,829.55,-3.80812
4367.8494,829.65,-3.80927
4368.4434,829.75,-3.81028
4369.0404,829.85,-3.81076
4369.6404,829.95,-3.80856
4370.2386,830.05,-3.80916
4370.8386,830.15,-3.80954
4371.4356,830.25,-3.80855
4372.0338,830.35,-3.80864
4372.6338,830.45,-3.8098
4373.2296,830.55,-3.81088
4373.829,830.65,-3.80949
4374.429,830.75,-3.81148
4375.0272,830.85,-3.81111
4375.6242,830.95,-3.81106
4376.2212,831.05,-3.81324
4376.8188,831.15,-3.81368
4377.417,831.25,-3.81394
4378.0176,831.35,-3.81432
4378.617,831.45,-3.81556
4379.2176,831.55,-3.81568
4379.8134,831.65,-3.81458
4380.4128,831.75,-3.81343
4381.0116,831.85,-3.8145
4381.6038,831.95,-3.81577
4382.2002,832.05,-3.81722
4382.7984,832.15,-3.81707
4383.3948,832.25,-3.81675
4383.9906,832.35,-3.81753
4384.5876,832.45,-3.82017
4385.1858,832.55,-3.81848
4385.7864,832.65,-3.81848
4386.3846,832.75,-3.81751
4386.981,832.85,-3.81817
4387.581,832.95,-3.81812
4388.1816,833.05,-3.81809
4388.7822,833.15,-3.81899
4389.3834,833.25,-3.81892
4389.9828,833.35,-3.81858
4390.5816,833.45,-3.8189
4391.1786,833.55,-3.81947
4391.7774,833.65,-3.81906
4392.3738,833.75,-3.81876
4392.9738,833.85,-3.81869
4393.575,833.95,-3.8177
4394.1762,834.05,-3.81841
4394.7756,834.15,-3.82027
4395.372,834.25,-3.82146
4395.9714,834.35,-3.82233
4396.572,834.45,-3.82103
4397.172,834.55,-3.82267
4397.7678,834.65,-3.82416
4398.3642,834.75,-3.82476
4398.9612,834.85,-3.82499
4399.56,834.95,-3.82496
4400.1558,835.05,-3.82463
4400.7552,835.15,-3.82364
4401.3534,835.25,-3.8252
4401.9486,835.35,-3.82642
4402.5462,835.45,-3.82983
4403.1426,835.55,-3.82949
4403.7426,835.65,-3.82982
4404.3414,835.75,-3.82882
4404.9432,835.85,-3.82877
4405.5378,835.95,-3.82965
4406.1348,836.05,-3.83061
4406.736,836.15,-3.82961
4407.3348,836.25,-3.83022
4407.9348,836.35,-3.82956
4408.5324,836.45,-3.83046
4409.1324,836.55,-3.83015
4409.7264,836.65,-3.82943
4410.3264,836.75,-3.83058
4410.9234,836.85,-3.83307
4411.524,836.95,-3.83466
4412.1216,837.05,-3.83622
4412.7192,837.15,-3.83626
4413.3168,837.25,-3.83558
4413.9168,837.35,-3.83577
4414.5192,837.45,-3.83732
4415.1186,837.55,-3.83802
4415.7168,837.65,-3.83639
4416.3156,837.75,-3.83819
4416.915,837.85,-3.8376
4417.5138,837.95,-3.83847
4418.1114,838.05,-3.83695
4418.7132,838.15,-3.83684
4419.312,838.25,-3.83703
4419.9114,838.35,-3.8389
4420.509,838.45,-3.83865
4421.1102,838.55,-3.83857
4421.7036,838.65,-3.8392
4422.3054,838.75,-3.83882
4422.906,838.85,-3.83965
4423.5072,838.95,-3.84035
4424.1036,839.05,-3.84025
4424.7018,839.15,-3.84183
4425.3006,839.25,-3.84032
4425.8982,839.35,-3.84083
4426.497,839.45,-3.83985
4427.0928,839.55,-3.84182
4427.6952,839.65,-3.8432
4428.2976,839.75,-3.84445
4428.8964,839.85,-3.84418
4429.4952,839.95,-3.84388
4430.0946,840.05,-3.84211
4430.6958,840.15,-3.8402
4431.2928,840.25,-3.84281
4431.8904,840.35,-3.84375
4432.4898,840.45,-3.84247
4433.0904,840.55,-3.84152
4433.6898,840.65,-3.83976
4434.2886,840.75,-3.84108
4434.8892,840.85,-3.84266
4435.485,840.95,-3.84482
4436.0844,841.05,-3.84567
4436.6862,841.15,-3.84496
4437.2856,841.25,-3.84557
4437.8862,841.35,-3.84438
4438.4868,841.45,-3.84444
4439.0862,841.55,-3.84512
4439.6856,841.65,-3.84434
4440.282,841.75,-3.8426
4440.8802,841.85,-3.84359
4441.4796,841.95,-3.84451
4442.0772,842.05,-3.84648
4442.6754,842.15,-3.84512
4443.2724,842.25,-3.84411
4443.8682,842.35,-3.84216
4444.4688,842.45,-3.84201
4445.0652,842.55,-3.84115
4445.6628,842.65,-3.84423
4446.2616,842.75,-3.84579
4446.8646,842.85,-3.84419
4447.4628,842.95,-3.84443
4448.0634,843.05,-3.84532
4448.6622,843.15,-3.84355
4449.2586,843.25,-3.84311
4449.858,843.35,-3.84463
4450.4562,843.45,-3.84537
4451.0544,843.55,-3.84543
4451.6538,843.65,-3.84524
4452.2556,843.75,-3.84661
4452.8556,843.85,-3.84759
4453.4526,843.95,-3.84584
4454.0526,844.05,-3.8449
4454.6514,844.15,-3.84466
4455.2472,844.25,-3.84321
4455.8484,844.35,-3.84187
4456.4508,844.45,-3.843
4457.0502,844.55,-3.843
4457.6502,844.65,-3.84496
4458.2478,844.75,-3.8454
4458.8472,844.85,-3.84432
4459.4472,844.95,-3.84457
4460.0466,845.05,-3.84366
4460.6454,845.15,-3.84375
4461.2442,845.25,-3.84406
4461.843,845.35,-3.84504
4462.443,845.45,-3.84692
4463.0436,845.55,-3.84809
4463.6436,845.65,-3.84804
4464.2454,845.75,-3.84864
4464.8448,845.85,-3.8455
4465.446,845.95,-3.84615
4466.0478,846.05,-3.84586
4466.6472,846.15,-3.84612
4467.249,846.25,-3.84719
4467.8568,846.35,-3.84717
4468.4562,846.45,-3.8482
4469.0586,846.55,-3.84912
4469.6622,846.65,-3.84782
4470.2676,846.75,-3.8485
4470.8712,846.85,-3.84879
4471.4724,846.95,-3.85039
4472.0724,847.05,-3.84937
4472.6736,847.15,-3.84855
4473.2772,847.25,-3.84764
4473.8796,847.35,-3.84673
4474.4826,847.45,-3.84824
4475.0832,847.55,-3.84838
4475.6856,847.65,-3.84773
4476.2898,847.75,-3.84692
4476.888,847.85,-3.84837
4477.488,847.95,-3.84909
4478.0886,848.05,-3.84992
4478.6916,848.15,-3.851
4479.2928,848.25,-3.84974
4479.894,848.35,-3.85039
4480.4928,848.45,-3.85237
4481.0946,848.55,-3.85215
4481.6934,848.65,-3.85208
4482.291,848.75,-3.85117
4482.8892,848.85,-3.85014
4483.4916,848.95,-3.84975
4484.0928,849.05,-3.84908
4484.6964,849.15,-3.84896
4485.2988,849.25,-3.84854
4485.9,849.35,-3.84464
4486.5024,849.45,-3.84593
4487.1036,849.55,-3.8509
4487.7078,849.65,-3.84992
4488.3084,849.75,-3.84905
4488.9072,849.85,-3.85024
4489.5102,849.95,-3.85088
4490.1126,850.05,-3.8509
4490.7132,850.15,-3.85051
4491.3144,850.25,-3.85048
4491.9168,850.35,-3.8504
4492.5174,850.45,-3.85132
4493.118,850.55,-3.85159
4493.7198,850.65,-3.85286
4494.3234,850.75,-3.85192
4494.9282,850.85,-3.85186
4495.5312,850.95,-3.85089
4496.1312,851.05,-3.84924
4496.733,851.15,-3.84793
4497.3354,851.25,-3.84751
4497.9396,851.35,-3.84873
4498.5432,851.45,-3.84938
4499.148,851.55,-3.84901
4499.7492,851.65,-3.84802
4500.3516,851.75,-3.84699
4500.9564,851.85,-3.84629
4501.56,851.95,-3.84563
4502.1624,852.05,-3.84592
4502.7654,852.15,-3.84557
4503.3684,852.25,-3.84652
4503.9684,852.35,-3.8487
4504.572,852.45,-3.84894
4505.175,852.55,-3.84956
4505.7792,852.65,-3.84985
4506.3828,852.75,-3.84941
4506.9846,852.85,-3.84811
4507.5864,852.95,-3.84846
4508.1894,853.05,-3.84876
4508.793,853.15,-3.84966
4509.396,853.25,-3.84958
4509.9966,853.35,-3.84923
4510.5948,853.45,-3.85002
4511.1954,853.55,-3.85273
4511.7972,853.65,-3.85043
4512.4014,853.75,-3.84807
4513.0044,853.85,-3.84874
4513.6038,853.95,-3.84876
4514.205,854.05,-3.85027
4514.8104,854.15,-3.85028
4515.4128,854.25,-3.85183
4516.0176,854.35,-3.85173
4516.6218,854.45,-3.85193
4517.2248,854.55,-3.85097
4517.8278,854.65,-3.85118
4518.4302,854.75,-3.85025
4519.035,854.85,-3.85138
4519.6416,854.95,-3.85161
4520.2452,855.05,-3.8511
4520.8464,855.15,-3.8532
4521.4506,855.25,-3.85127
4522.0566,855.35,-3.85228
4522.6608,855.45,-3.85206
4523.268,855.55,-3.8531
4523.871,855.65,-3.85254
4524.4728,855.75,-3.85287
4525.077,855.85,-3.85173
4525.6794,855.95,-3.85335
4526.2866,856.05,-3.85475
4526.8914,856.15,-3.85396
4527.4926,856.25,-3.85158
4528.0974,856.35,-3.85145
4528.7016,856.45,-3.85111
4529.3058,856.55,-3.85104
4529.91,856.65,-3.852
4530.516,856.75,-3.85357
4531.1202,856.85,-3.85177
4531.7232,856.95,-3.85073
4532.325,857.05,-3.85002
4532.9274,857.15,-3.84885
4533.5346,857.25,-3.84842
4534.1382,857.35,-3.85
4534.7406,857.45,-3.85
4535.3436,857.55,-3.84852
4535.946,857.65,-3.84895
4536.552,857.75,-3.84934
4537.158,857.85,-3.84929
4537.7622,857.95,-3.84981
4538.3682,858.05,-3.85008
4538.97,858.15,-3.84979
4539.5736,858.25,-3.85033
4540.1778,858.35,-3.8506
4540.7808,858.45,-3.84932
4541.3874,858.55,-3.84892
4541.9922,858.65,-3.84865
4542.5952,858.75,-3.84679
4543.1982,858.85,-3.84652
4543.8024,858.95,-3.84768
4544.4072,859.05,-3.84886
4545.0144,859.15,-3.84799
4545.6198,859.25,-3.84779
4546.2222,859.35,-3.84702
4546.8264,859.45,-3.84648
4547.4312,859.55,-3.84684
4548.0378,859.65,-3.8454
4548.6432,859.75,-3.84422
4549.2474,859.85,-3.84337
4549.8522,859.95,-3.8429
4550.4552,860.05,-3.84461
4551.0594,860.15,-3.84513
4551.6678,860.25,-3.8447
4552.2744,860.35,-3.84395
4552.8792,860.45,-3.84309
4553.4834,860.55,-3.84243
4554.0858,860.65,-3.84284
4554.6906,860.75,-3.84264
4555.2984,860.85,-3.84241
4555.9044,860.95,-3.8428
4556.5104,861.05,-3.84137
4557.1134,861.15,-3.84042
4557.7164,861.25,-3.84011
4558.3224,861.35,-3.83872
4558.929,861.45,-3.84019
4559.5362,861.55,-3.84035
4560.141,861.65,-3.84023
4560.7458,861.75,-3.84185
4561.3506,861.85,-3.84143
4561.9554,861.95,-3.84067
4562.5614,862.05,-3.8408
4563.1692,862.15,-3.8415
4563.7764,862.25,-3.84303
4564.3794,862.35,-3.84385
4564.9854,862.45,-3.84272
4565.5932,862.55,-3.84184
4566.1992,862.65,-3.84065
4566.8052,862.75,-3.83763
4567.4112,862.85,-3.83684
4568.0178,862.95,-3.83784
4568.6232,863.05,-3.83787
4569.2298,863.15,-3.83846
4569.8364,863.25,-3.8377
4570.4436,863.35,-3.83691
4571.0478,863.45,-3.83641
4571.6508,863.55,-3.83697
4572.2544,863.65,-3.8365
4572.861,863.75,-3.83531
4573.467,863.85,-3.83309
4574.076,863.95,-3.83458
4574.682,864.05,-3.8359
4575.288,864.15,-3.83457
4575.8952,864.25,-3.83501
4576.4988,864.35,-3.83563
4577.1054,864.45,-3.83632
4577.7114,864.55,-3.83509
4578.3186,864.65,-3.83365
4578.9228,864.75,-3.83415
4579.5318,864.85,-3.83454
4580.1408,864.95,-3.83154
4580.7462,865.05,-3.83278
4581.3516,865.15,-3.83175
4581.957,865.25,-3.83235
4582.563,865.35,-3.83232
4583.169,865.45,-3.83265
4583.7792,865.55,-3.83523
4584.387,865.65,-3.83599
4584.9942,865.75,-3.83463
4585.6014,865.85,-3.83365
4586.208,865.95,-3.83402
4586.814,866.05,-3.8345
4587.4218,866.15,-3.83397
4588.0278,866.25,-3.83561
4588.6338,866.35,-3.83516
4589.2404,866.45,-3.83323
4589.847,866.55,-3.83354
4590.4524,866.65,-3.83466
4591.0572,866.75,-3.83412
4591.6656,866.85,-3.83386
4592.2692,866.95,-3.83426
4592.8734,867.05,-3.83422
4593.48,867.15,-3.83287
4594.0878,867.25,-3.83214
4594.6944,867.35,-3.83127
4595.2992,867.45,-3.8319
4595.9064,867.55,-3.83395
4596.5106,867.65,-3.83587
4597.1154,867.75,-3.83531
4597.7214,867.85,-3.83518
4598.3268,867.95,-3.83455
4598.931,868.05,-3.83384
4599.5358,868.15,-3.83218
4600.1412,868.25,-3.83212
4600.7442,868.35,-3.833
4601.3502,868.45,-3.83243
4601.9598,868.55,-3.83251
4602.5658,868.65,-3.833
4603.1712,868.75,-3.83029
4603.7772,868.85,-3.82891
4604.3856,868.95,-3.83125
4604.9928,869.05,-3.83183
4605.5988,869.15,-3.83083
4606.2078,869.25,-3.83153
4606.812,869.35,-3.83161
4607.4198,869.45,-3.83284
4608.0282,869.55,-3.8333
4608.6312,869.65,-3.83379
4609.2396,869.75,-3.83321
4609.8468,869.85,-3.83307
4610.451,869.95,-3.83285
4611.0558,870.05,-3.8337
4611.6624,870.15,-3.83502
4612.269,870.25,-3.8338
4612.866,870.35,-3.83234
4613.5068,870.45,-3.83305
4614.1044,870.55,-3.83332
4614.6852,870.65,-3.834
4615.296,870.75,-3.83499
4615.8948,870.85,-3.8355
4616.4978,870.95,-3.83483
4617.102,871.05,-3.83473
4617.6996,871.15,-3.83507
4618.3092,871.25,-3.83518
4618.9014,871.35,-3.83518
4619.6028,871.45,-3.83425
