Time,Temperature,Heat Flow
[s],[K],[W/g]
1200.1002,306.94,-3.07E-03
1245.1818,307.04,-2.20E-03
1257.1068,307.14,-6.51E-04
1264.7556,307.24,-4.36E-03
1270.3572,307.34,-6.34E-03
1274.9838,307.44,-4.95E-03
1278.9606,307.54,-6.72E-03
1282.2702,307.64,-8.75E-03
1285.3854,307.74,-9.89E-03
1288.1346,307.84,-1.15E-02
1290.6624,307.94,-1.28E-02
1292.9154,308.04,-1.19E-02
1294.9896,308.14,-1.42E-02
1296.9726,308.24,-1.72E-02
1298.7336,308.34,-1.53E-02
1300.4508,308.44,-1.80E-02
1302.2136,308.54,-2.28E-02
1303.854,308.64,-2.29E-02
1305.4332,308.74,-2.36E-02
1306.8948,308.84,-2.86E-02
1308.3504,308.94,-2.94E-02
1309.6764,309.04,-2.98E-02
1310.9532,309.14,-3.04E-02
1312.224,309.24,-3.29E-02
1313.4822,309.34,-3.44E-02
1314.7002,309.44,-3.71E-02
1315.8588,309.54,-3.94E-02
1316.9334,309.64,-4.19E-02
1318.002,309.74,-4.45E-02
1319.0538,309.84,-4.66E-02
1320.0744,309.94,-4.73E-02
1321.068,310.04,-5.17E-02
1322.0376,310.14,-5.05E-02
1322.9928,310.24,-5.46E-02
1323.927,310.34,-5.69E-02
1324.8402,310.44,-5.85E-02
1325.7288,310.54,-6.00E-02
1326.6036,310.64,-6.05E-02
1327.4922,310.74,-6.68E-02
1328.3436,310.84,-6.71E-02
1329.1884,310.94,-6.99E-02
1329.9906,311.04,-7.23E-02
1330.7802,311.14,-7.44E-02
1331.5482,311.24,-7.74E-02
1332.2922,311.34,-7.72E-02
1333.0212,311.44,-8.06E-02
1333.7544,311.54,-8.28E-02
1334.4822,311.64,-8.75E-02
1335.201,311.74,-9.14E-02
1335.9348,311.84,-9.22E-02
1336.6428,311.94,-9.17E-02
1337.325,312.04,-9.60E-02
1338.0168,312.14,-9.70E-02
1338.6726,312.24,-0.10157
1339.3374,312.34,-0.10284
1340.0058,312.44,-0.1044
1340.6388,312.54,-0.10642
1341.2856,312.64,-0.10992
1341.8976,312.74,-0.11283
1342.5054,312.84,-0.11656
1343.1192,312.94,-0.12041
1343.7216,313.04,-0.12297
1344.3168,313.14,-0.12404
1344.9192,313.24,-0.12826
1345.5054,313.34,-0.12976
1346.0796,313.44,-0.13283
1346.6502,313.54,-0.13681
1347.2106,313.64,-0.14047
1347.7596,313.74,-0.14271
1348.3086,313.84,-0.14503
1348.8636,313.94,-0.14882
1349.4072,314.04,-0.15108
1349.9556,314.14,-0.15314
1350.4902,314.24,-0.1557
1351.0152,314.34,-0.15891
1351.5258,314.44,-0.15957
1352.0376,314.54,-0.16351
1352.5398,314.64,-0.16716
1353.0432,314.74,-0.16968
1353.5376,314.84,-0.17424
1354.0404,314.94,-0.17708
1354.5324,315.04,-0.18171
1355.0202,315.14,-0.18212
1355.5038,315.24,-0.18416
1355.9922,315.34,-0.18805
1356.4584,315.44,-0.19062
1356.9336,315.54,-0.1924
1357.4004,315.64,-0.19538
1357.8582,315.74,-0.19873
1358.3178,315.84,-0.20061
1358.7744,315.94,-0.20544
1359.2316,316.04,-0.20863
1359.681,316.14,-0.21327
1360.1274,316.24,-0.21417
1360.5768,316.34,-0.21879
1361.0136,316.44,-0.22188
1361.4516,316.54,-0.22238
1361.8914,316.64,-0.22556
1362.3228,316.74,-0.22808
1362.7572,316.84,-0.23127
1363.185,316.94,-0.23357
1363.608,317.04,-0.23704
1364.0238,317.14,-0.23713
1364.4414,317.24,-0.24001
1364.8578,317.34,-0.24377
1365.2658,317.44,-0.24742
1365.6672,317.54,-0.24784
1366.0752,317.64,-0.25163
1366.4874,317.74,-0.25544
1366.887,317.84,-0.25736
1367.2788,317.94,-0.26101
1367.667,318.04,-0.26413
1368.06,318.14,-0.26715
1368.453,318.24,-0.27122
1368.834,318.34,-0.27414
1369.2114,318.44,-0.27736
1369.5918,318.54,-0.2786
1369.962,318.64,-0.28115
1370.3382,318.74,-0.28416
1370.7108,318.84,-0.28432
1371.081,318.94,-0.28852
1371.4524,319.04,-0.29301
1371.813,319.14,-0.29478
1372.1718,319.24,-0.29674
1372.5384,319.34,-0.29894
1372.8972,319.44,-0.30345
1373.2542,319.54,-0.30527
1373.607,319.64,-0.30843
1373.9562,319.74,-0.30937
1374.3102,319.84,-0.31276
1374.6654,319.94,-0.31511
1375.0194,320.04,-0.318
1375.3662,320.14,-0.32121
1375.7172,320.24,-0.32415
1376.0652,320.34,-0.32832
1376.4132,320.44,-0.33184
1376.754,320.54,-0.33422
1377.099,320.64,-0.33669
1377.4374,320.74,-0.34106
1377.7764,320.84,-0.3453
1378.1118,320.94,-0.34828
1378.446,321.04,-0.35004
1378.7778,321.14,-0.35479
1379.109,321.24,-0.35809
1379.4408,321.34,-0.36135
1379.763,321.44,-0.36505
1380.0882,321.54,-0.36865
1380.408,321.64,-0.37307
1380.7284,321.74,-0.37555
1381.047,321.84,-0.37555
1381.3686,321.94,-0.38212
1381.6878,322.04,-0.3831
1382.0082,322.14,-0.38705
1382.3274,322.24,-0.38872
1382.6424,322.34,-0.3916
1382.9562,322.44,-0.39582
1383.2682,322.54,-0.39834
1383.5778,322.64,-0.39962
1383.8856,322.74,-0.40321
1384.1928,322.84,-0.40665
1384.4964,322.94,-0.40989
1384.8048,323.04,-0.41286
1385.106,323.14,-0.4136
1385.4084,323.24,-0.41718
1385.7084,323.34,-0.42118
1386.0066,323.44,-0.42427
1386.3024,323.54,-0.4268
1386.5976,323.64,-0.43227
1386.8946,323.74,-0.43531
1387.1868,323.84,-0.43926
1387.4808,323.94,-0.44193
1387.7772,324.04,-0.44301
1388.0724,324.14,-0.448
1388.3718,324.24,-0.45195
1388.6646,324.34,-0.45514
1388.955,324.44,-0.45622
1389.246,324.54,-0.45924
1389.5346,324.64,-0.46377
1389.822,324.74,-0.46553
1390.1058,324.84,-0.46925
1390.3878,324.94,-0.47173
1390.6698,325.04,-0.4761
1390.9458,325.14,-0.48027
1391.226,325.24,-0.48285
1391.5104,325.34,-0.48505
1391.7888,325.44,-0.48771
1392.066,325.54,-0.49169
1392.3432,325.64,-0.49564
1392.6186,325.74,-0.50086
1392.894,325.84,-0.50202
1393.1682,325.94,-0.50456
1393.4424,326.04,-0.50711
1393.716,326.14,-0.50983
1393.986,326.24,-0.51236
1394.2554,326.34,-0.51574
1394.5206,326.44,-0.51579
1394.7876,326.54,-0.52023
1395.0528,326.64,-0.52453
1395.324,326.74,-0.52686
1395.5904,326.84,-0.52799
1395.855,326.94,-0.53259
1396.1172,327.04,-0.53668
1396.3794,327.14,-0.53953
1396.6422,327.24,-0.5433
1396.9062,327.34,-0.54752
1397.1714,327.44,-0.54899
1397.4312,327.54,-0.55347
1397.6922,327.64,-0.55585
1397.9454,327.74,-0.55916
1398.1998,327.84,-0.56144
1398.456,327.94,-0.567
1398.7104,328.04,-0.57181
1398.9672,328.14,-0.57235
1399.2222,328.24,-0.57816
1399.4766,328.34,-0.58142
1399.7274,328.44,-0.58535
1399.98,328.54,-0.58732
1400.2338,328.64,-0.59131
1400.4882,328.74,-0.59364
1400.7402,328.84,-0.59771
1400.9898,328.94,-0.60042
1401.2418,329.04,-0.60278
1401.4896,329.14,-0.60595
1401.7332,329.24,-0.60854
1401.981,329.34,-0.61237
1402.2258,329.44,-0.61723
1402.4658,329.54,-0.62175
1402.7094,329.64,-0.62523
1402.947,329.74,-0.6285
1403.1882,329.84,-0.63249
1403.4336,329.94,-0.63664
1403.6766,330.04,-0.64026
1403.9184,330.14,-0.64345
1404.1602,330.24,-0.64835
1404.402,330.34,-0.65119
1404.6396,330.44,-0.65383
1404.8802,330.54,-0.65826
1405.1208,330.64,-0.66099
1405.3596,330.74,-0.66378
1405.5984,330.84,-0.6652
1405.8342,330.94,-0.6685
1406.0688,331.04,-0.67131
1406.3022,331.14,-0.67566
1406.5368,331.24,-0.67803
1406.7708,331.34,-0.68051
1407.0036,331.44,-0.6849
1407.237,331.54,-0.68895
1407.468,331.64,-0.69218
1407.702,331.74,-0.69564
1407.933,331.84,-0.69877
1408.164,331.94,-0.70249
1408.392,332.04,-0.70511
1408.623,332.14,-0.70842
1408.851,332.24,-0.71109
1409.0784,332.34,-0.71298
1409.3064,332.44,-0.7156
1409.5332,332.54,-0.72013
1409.7588,332.64,-0.7232
1409.985,332.74,-0.72653
1410.2088,332.84,-0.72992
1410.432,332.94,-0.73463
1410.6552,333.04,-0.73557
1410.882,333.14,-0.7399
1411.104,333.24,-0.74427
1411.326,333.34,-0.74523
1411.548,333.44,-0.74929
1411.7694,333.54,-0.75216
1411.9896,333.64,-0.75618
1412.2086,333.74,-0.76072
1412.4282,333.84,-0.7655
1412.646,333.94,-0.76785
1412.8674,334.04,-0.76978
1413.087,334.14,-0.77432
1413.3042,334.24,-0.77763
1413.5202,334.34,-0.78149
1413.7368,334.44,-0.78458
1413.9522,334.54,-0.78798
1414.1658,334.64,-0.79063
1414.3788,334.74,-0.7932
1414.5942,334.84,-0.79534
1414.8084,334.94,-0.79771
1415.0232,335.04,-0.80001
1415.2368,335.14,-0.80446
1415.4492,335.24,-0.80786
1415.661,335.34,-0.81035
1415.8728,335.44,-0.81508
1416.0858,335.54,-0.81924
1416.2982,335.64,-0.82377
1416.5088,335.74,-0.82566
1416.7188,335.84,-0.82948
1416.933,335.94,-0.83228
1417.1406,336.04,-0.83646
1417.3494,336.14,-0.83981
1417.5564,336.24,-0.84144
1417.764,336.34,-0.84436
1417.9704,336.44,-0.84855
1418.175,336.54,-0.85182
1418.3808,336.64,-0.85589
1418.5866,336.74,-0.85946
1418.7924,336.84,-0.86158
1418.9988,336.94,-0.86403
1419.2046,337.04,-0.86842
1419.4086,337.14,-0.87241
1419.6138,337.24,-0.87515
1419.8184,337.34,-0.87843
1420.0218,337.44,-0.88076
1420.2258,337.54,-0.88525
1420.4268,337.64,-0.8893
1420.6296,337.74,-0.89181
1420.833,337.84,-0.8958
1421.0352,337.94,-0.89959
1421.2356,338.04,-0.90212
1421.436,338.14,-0.90466
1421.6376,338.24,-0.90828
1421.8374,338.34,-0.91116
1422.036,338.44,-0.9152
1422.2352,338.54,-0.91884
1422.4356,338.64,-0.92143
1422.633,338.74,-0.92413
1422.831,338.84,-0.92805
1423.0308,338.94,-0.9311
1423.2294,339.04,-0.9342
1423.4268,339.14,-0.93828
1423.626,339.24,-0.94192
1423.8222,339.34,-0.94624
1424.0184,339.44,-0.94945
1424.2134,339.54,-0.95087
1424.4078,339.64,-0.95547
1424.6028,339.74,-0.96074
1424.796,339.84,-0.9631
1424.9868,339.94,-0.96564
1425.1806,340.04,-0.9693
1425.3738,340.14,-0.97249
1425.5658,340.24,-0.97577
1425.759,340.34,-0.97953
1425.9504,340.44,-0.98365
1426.1406,340.54,-0.98832
1426.3308,340.64,-0.98945
1426.5222,340.74,-0.99308
1426.7106,340.84,-0.99736
1426.902,340.94,-1.00121
1427.0922,341.04,-1.00266
1427.2818,341.14,-1.00653
1427.4714,341.24,-1.0087
1427.6634,341.34,-1.01232
1427.8542,341.44,-1.01633
1428.0432,341.54,-1.02025
1428.2316,341.64,-1.02472
1428.4206,341.74,-1.02773
1428.609,341.84,-1.03136
1428.7962,341.94,-1.03494
1428.9822,342.04,-1.03694
1429.1694,342.14,-1.04015
1429.3572,342.24,-1.04443
1429.5432,342.34,-1.04713
1429.7304,342.44,-1.04978
1429.9182,342.54,-1.05492
1430.1048,342.64,-1.05847
1430.289,342.74,-1.06188
1430.4732,342.84,-1.06446
1430.6592,342.94,-1.06567
1430.8434,343.04,-1.06826
1431.0264,343.14,-1.07045
1431.2106,343.24,-1.07252
1431.3948,343.34,-1.07723
1431.579,343.44,-1.08271
1431.762,343.54,-1.08616
1431.9438,343.64,-1.08927
1432.1262,343.74,-1.0927
1432.3098,343.84,-1.0949
1432.4904,343.94,-1.09845
1432.6716,344.04,-1.10236
1432.8528,344.14,-1.10638
1433.0358,344.24,-1.10963
1433.217,344.34,-1.11229
1433.3982,344.44,-1.11483
1433.5794,344.54,-1.11814
1433.7594,344.64,-1.1226
1433.94,344.74,-1.12684
1434.1224,344.84,-1.13046
1434.3018,344.94,-1.13452
1434.483,345.04,-1.13616
1434.6618,345.14,-1.13852
1434.8394,345.24,-1.14317
1435.0194,345.34,-1.14601
1435.1988,345.44,-1.14753
1435.377,345.54,-1.15159
1435.5552,345.64,-1.15601
1435.731,345.74,-1.15815
1435.9074,345.84,-1.16108
1436.0856,345.94,-1.1628
1436.2632,346.04,-1.16642
1436.4396,346.14,-1.17054
1436.6142,346.24,-1.17347
1436.7882,346.34,-1.17635
1436.9634,346.44,-1.18061
1437.1398,346.54,-1.18417
1437.3162,346.64,-1.18573
1437.4926,346.74,-1.18948
1437.666,346.84,-1.19238
1437.8418,346.94,-1.19559
1438.0164,347.04,-1.19842
1438.1892,347.14,-1.20076
1438.3638,347.24,-1.20339
1438.539,347.34,-1.20713
1438.7112,347.44,-1.21178
1438.8846,347.54,-1.21496
1439.0586,347.64,-1.21893
1439.232,347.74,-1.22202
1439.4066,347.84,-1.22438
1439.5788,347.94,-1.22784
1439.7492,348.04,-1.23183
1439.9214,348.14,-1.23491
1440.0924,348.24,-1.2383
1440.2658,348.34,-1.24234
1440.4368,348.44,-1.24529
1440.6078,348.54,-1.2486
1440.7794,348.64,-1.25121
1440.9504,348.74,-1.25349
1441.1202,348.84,-1.25734
1441.29,348.94,-1.26046
1441.4598,349.04,-1.26425
1441.629,349.14,-1.26663
1441.7988,349.24,-1.26834
1441.9686,349.34,-1.27038
1442.1378,349.44,-1.27392
1442.3064,349.54,-1.27885
1442.4756,349.64,-1.28087
1442.6436,349.74,-1.28387
1442.8104,349.84,-1.28646
1442.9778,349.94,-1.29014
1443.1464,350.04,-1.29552
1443.3138,350.14,-1.29962
1443.4812,350.24,-1.30273
1443.6474,350.34,-1.30612
1443.8142,350.44,-1.30971
1443.9816,350.54,-1.31295
1444.1484,350.64,-1.31577
1444.3146,350.74,-1.31853
1444.4808,350.84,-1.32131
1444.6464,350.94,-1.32375
1444.812,351.04,-1.32627
1444.9782,351.14,-1.32951
1445.1438,351.24,-1.33397
1445.31,351.34,-1.33755
1445.4744,351.44,-1.33741
1445.6388,351.54,-1.34133
1445.8026,351.64,-1.34664
1445.967,351.74,-1.35079
1446.1326,351.84,-1.35413
1446.2982,351.94,-1.35667
1446.4614,352.04,-1.3597
1446.6246,352.14,-1.36278
1446.789,352.24,-1.36598
1446.9534,352.34,-1.36831
1447.1166,352.44,-1.37068
1447.2786,352.54,-1.37641
1447.4412,352.64,-1.38138
1447.6038,352.74,-1.38349
1447.7658,352.84,-1.38531
1447.929,352.94,-1.38841
1448.0916,353.04,-1.39181
1448.2524,353.14,-1.39704
1448.4138,353.24,-1.40044
1448.5746,353.34,-1.40269
1448.7342,353.44,-1.40546
1448.8944,353.54,-1.40832
1449.0552,353.64,-1.41195
1449.2148,353.74,-1.41463
1449.3738,353.84,-1.41818
1449.5322,353.94,-1.42268
1449.693,354.04,-1.42537
1449.8532,354.14,-1.42764
1450.0128,354.24,-1.43176
1450.1712,354.34,-1.43595
1450.3296,354.44,-1.43849
1450.488,354.54,-1.4408
1450.6464,354.64,-1.44413
1450.8042,354.74,-1.44699
1450.9632,354.84,-1.45034
1451.1228,354.94,-1.45494
1451.2806,355.04,-1.45893
1451.439,355.14,-1.46184
1451.5974,355.24,-1.46402
1451.7552,355.34,-1.46724
1451.9124,355.44,-1.47115
1452.0702,355.54,-1.47301
1452.2262,355.64,-1.4764
1452.3822,355.74,-1.4807
1452.5388,355.84,-1.48448
1452.6954,355.94,-1.48791
1452.8526,356.04,-1.49102
1453.0086,356.14,-1.49341
1453.1646,356.24,-1.49644
1453.3206,356.34,-1.5
1453.4772,356.44,-1.50237
1453.6308,356.54,-1.50582
1453.7862,356.64,-1.50986
1453.9422,356.74,-1.51342
1454.0964,356.84,-1.51646
1454.2524,356.94,-1.51963
1454.4072,357.04,-1.52369
1454.5614,357.14,-1.52778
1454.7156,357.24,-1.53076
1454.8704,357.34,-1.53323
1455.0246,357.44,-1.53747
1455.1794,357.54,-1.5413
1455.3336,357.64,-1.54373
1455.4872,357.74,-1.54651
1455.6396,357.84,-1.55008
1455.7926,357.94,-1.55248
1455.9462,358.04,-1.55459
1456.0992,358.14,-1.55801
1456.2528,358.24,-1.56151
1456.404,358.34,-1.56565
1456.5552,358.44,-1.56991
1456.7076,358.54,-1.5735
1456.8588,358.64,-1.57651
1457.0112,358.74,-1.5786
1457.163,358.84,-1.58113
1457.3148,358.94,-1.58498
1457.4666,359.04,-1.5891
1457.6178,359.14,-1.59219
1457.7678,359.24,-1.5952
1457.9184,359.34,-1.59913
1458.069,359.44,-1.60312
1458.2202,359.54,-1.60506
1458.3708,359.64,-1.60696
1458.5202,359.74,-1.61097
1458.6702,359.84,-1.61582
1458.8196,359.94,-1.61774
1458.9684,360.04,-1.62014
1459.1178,360.14,-1.62467
1459.2672,360.24,-1.62859
1459.416,360.34,-1.63284
1459.5654,360.44,-1.63631
1459.7154,360.54,-1.63868
1459.863,360.64,-1.64151
1460.0112,360.74,-1.64464
1460.1594,360.84,-1.64835
1460.3082,360.94,-1.6523
1460.4552,361.04,-1.65544
1460.6028,361.14,-1.65859
1460.7504,361.24,-1.66159
1460.8968,361.34,-1.66439
1461.0444,361.44,-1.66814
1461.1926,361.54,-1.67277
1461.3402,361.64,-1.67626
1461.4878,361.74,-1.67797
1461.6354,361.84,-1.68118
1461.7824,361.94,-1.68567
1461.9288,362.04,-1.68943
1462.0752,362.14,-1.69151
1462.221,362.24,-1.69399
1462.3662,362.34,-1.69722
1462.512,362.44,-1.70068
1462.6584,362.54,-1.704
1462.8036,362.64,-1.70714
1462.95,362.74,-1.71072
1463.097,362.84,-1.71469
1463.2434,362.94,-1.71781
1463.3904,363.04,-1.71953
1463.5368,363.14,-1.72177
1463.6814,363.24,-1.72599
1463.8254,363.34,-1.72994
1463.97,363.44,-1.73265
1464.1158,363.54,-1.7361
1464.2598,363.64,-1.74186
1464.4044,363.74,-1.74446
1464.5496,363.84,-1.74606
1464.6936,363.94,-1.74938
1464.8376,364.04,-1.75161
1464.9822,364.14,-1.75493
1465.1268,364.24,-1.75927
1465.2708,364.34,-1.76248
1465.4148,364.44,-1.76524
1465.5588,364.54,-1.7682
1465.7022,364.64,-1.77171
1465.845,364.74,-1.77573
1465.9866,364.84,-1.77947
1466.1288,364.94,-1.78257
1466.2728,365.04,-1.78573
1466.4162,365.14,-1.79051
1466.559,365.24,-1.79449
1466.7012,365.34,-1.79665
1466.8446,365.44,-1.79932
1466.9868,365.54,-1.80233
1467.129,365.64,-1.80482
1467.2718,365.74,-1.80689
1467.414,365.84,-1.81017
1467.5556,365.94,-1.81304
1467.6972,366.04,-1.81512
1467.8376,366.14,-1.81897
1467.9792,366.24,-1.8235
1468.1202,366.34,-1.827
1468.26,366.44,-1.82949
1468.401,366.54,-1.83406
1468.5432,366.64,-1.83877
1468.6842,366.74,-1.84128
1468.824,366.84,-1.84356
1468.9638,366.94,-1.84625
1469.1048,367.04,-1.84873
1469.2446,367.14,-1.85068
1469.3844,367.24,-1.8547
1469.5242,367.34,-1.85982
1469.664,367.44,-1.86342
1469.8032,367.54,-1.86656
1469.9418,367.64,-1.86931
1470.0804,367.74,-1.87181
1470.219,367.84,-1.87547
1470.3576,367.94,-1.87946
1470.4974,368.04,-1.88279
1470.636,368.14,-1.88558
1470.7746,368.24,-1.88889
1470.9132,368.34,-1.89247
1471.0518,368.44,-1.89531
1471.1904,368.54,-1.8984
1471.329,368.64,-1.90143
1471.467,368.74,-1.90415
1471.6038,368.84,-1.90847
1471.7412,368.94,-1.91324
1471.8798,369.04,-1.91703
1472.0184,369.14,-1.92058
1472.1558,369.24,-1.9238
1472.292,369.34,-1.92652
1472.43,369.44,-1.92915
1472.5674,369.54,-1.93279
1472.7054,369.64,-1.93704
1472.8434,369.74,-1.94034
1472.9808,369.84,-1.94302
1473.1176,369.94,-1.94575
1473.255,370.04,-1.94909
1473.3918,370.14,-1.95329
1473.5286,370.24,-1.9575
1473.6636,370.34,-1.96051
1473.7998,370.44,-1.96208
1473.9366,370.54,-1.96391
1474.0728,370.64,-1.96728
1474.2096,370.74,-1.97104
1474.3458,370.84,-1.97472
1474.4814,370.94,-1.97807
1474.6164,371.04,-1.9808
1474.752,371.14,-1.98451
1474.8876,371.24,-1.98888
1475.0226,371.34,-1.99105
1475.1576,371.44,-1.99362
1475.2926,371.54,-1.99731
1475.427,371.64,-1.99933
1475.562,371.74,-2.00156
1475.697,371.84,-2.00485
1475.8308,371.94,-2.00785
1475.964,372.04,-2.01127
1476.0978,372.14,-2.01513
1476.2328,372.24,-2.01854
1476.366,372.34,-2.02197
1476.4992,372.44,-2.02523
1476.633,372.54,-2.02748
1476.7668,372.64,-2.02974
1476.8994,372.74,-2.03248
1477.0326,372.84,-2.03536
1477.1658,372.94,-2.03907
1477.3002,373.04,-2.04322
1477.4334,373.14,-2.04644
1477.5672,373.24,-2.04915
1477.701,373.34,-2.05179
1477.8342,373.44,-2.05447
1477.9674,373.54,-2.05758
1478.1,373.64,-2.06119
1478.2332,373.74,-2.06494
1478.3664,373.84,-2.0682
1478.499,373.94,-2.07102
1478.6316,374.04,-2.07414
1478.7642,374.14,-2.07819
1478.8974,374.24,-2.08301
1479.0306,374.34,-2.08768
1479.1626,374.44,-2.091
1479.2934,374.54,-2.09289
1479.426,374.64,-2.09468
1479.5592,374.74,-2.09807
1479.6924,374.84,-2.10244
1479.8238,374.94,-2.1053
1479.9552,375.04,-2.10825
1480.0866,375.14,-2.11196
1480.2186,375.24,-2.11484
1480.35,375.34,-2.11772
1480.4808,375.44,-2.12144
1480.6128,375.54,-2.12558
1480.7442,375.64,-2.12883
1480.8756,375.74,-2.13086
1481.007,375.84,-2.13311
1481.139,375.94,-2.13587
1481.271,376.04,-2.13879
1481.4018,376.14,-2.14154
1481.532,376.24,-2.14432
1481.6628,376.34,-2.14739
1481.7954,376.44,-2.15054
1481.9274,376.54,-2.15412
1482.0576,376.64,-2.15841
1482.1872,376.74,-2.16295
1482.3168,376.84,-2.16667
1482.447,376.94,-2.16924
1482.5778,377.04,-2.17286
1482.7074,377.14,-2.17635
1482.837,377.24,-2.1773
1482.9672,377.34,-2.17906
1483.0974,377.44,-2.18239
1483.227,377.54,-2.18495
1483.3566,377.64,-2.18679
1483.4862,377.74,-2.18904
1483.6152,377.84,-2.19286
1483.7442,377.94,-2.1972
1483.8732,378.04,-2.20127
1484.0022,378.14,-2.2056
1484.1312,378.24,-2.2093
1484.2602,378.34,-2.2118
1484.3892,378.44,-2.21438
1484.5182,378.54,-2.2174
1484.6472,378.64,-2.22057
1484.7762,378.74,-2.22361
1484.904,378.84,-2.22638
1485.0324,378.94,-2.22907
1485.1614,379.04,-2.23249
1485.2898,379.14,-2.23641
1485.4188,379.24,-2.23961
1485.5472,379.34,-2.24238
1485.675,379.44,-2.24522
1485.8028,379.54,-2.24819
1485.9306,379.64,-2.25116
1486.0584,379.74,-2.25423
1486.1874,379.84,-2.25805
1486.3164,379.94,-2.26203
1486.4448,380.04,-2.26523
1486.572,380.14,-2.26787
1486.6998,380.24,-2.27021
1486.827,380.34,-2.27262
1486.9548,380.44,-2.27626
1487.082,380.54,-2.28043
1487.2092,380.64,-2.28255
1487.337,380.74,-2.2838
1487.4642,380.84,-2.28582
1487.592,380.94,-2.28845
1487.7192,381.04,-2.29146
1487.8452,381.14,-2.29486
1487.9718,381.24,-2.29904
1488.099,381.34,-2.3036
1488.2262,381.44,-2.30762
1488.3534,381.54,-2.31092
1488.48,381.64,-2.31382
1488.6066,381.74,-2.3169
1488.7326,381.84,-2.31999
1488.858,381.94,-2.32302
1488.9846,382.04,-2.32656
1489.1118,382.14,-2.32997
1489.239,382.24,-2.33225
1489.365,382.34,-2.33382
1489.4916,382.44,-2.33544
1489.6182,382.54,-2.33783
1489.7436,382.64,-2.34099
1489.8684,382.74,-2.34441
1489.9944,382.84,-2.34728
1490.121,382.94,-2.34988
1490.2476,383.04,-2.35281
1490.3736,383.14,-2.356
1490.4996,383.24,-2.3586
1490.625,383.34,-2.36003
1490.7498,383.44,-2.36282
1490.8758,383.54,-2.36741
1491.0012,383.64,-2.37092
1491.1266,383.74,-2.37351
1491.2526,383.84,-2.3764
1491.3774,383.94,-2.37988
1491.5022,384.04,-2.38327
1491.6276,384.14,-2.38587
1491.7524,384.24,-2.38896
1491.8766,384.34,-2.3927
1492.0014,384.44,-2.39555
1492.1268,384.54,-2.39858
1492.2516,384.64,-2.40274
1492.3764,384.74,-2.40624
1492.5018,384.84,-2.40926
1492.6272,384.94,-2.413
1492.7514,385.04,-2.41619
1492.8756,385.14,-2.41826
1493.0004,385.24,-2.4202
1493.1252,385.34,-2.42259
1493.25,385.44,-2.42572
1493.3748,385.54,-2.42963
1493.499,385.64,-2.43343
1493.6232,385.74,-2.43596
1493.7474,385.84,-2.43771
1493.8716,385.94,-2.43941
1493.9964,386.04,-2.44152
1494.12,386.14,-2.44449
1494.243,386.24,-2.44851
1494.366,386.34,-2.45309
1494.4902,386.44,-2.45745
1494.6138,386.54,-2.46084
1494.7374,386.64,-2.46346
1494.861,386.74,-2.46592
1494.9846,386.84,-2.46889
1495.1076,386.94,-2.47189
1495.23,387.04,-2.47423
1495.353,387.14,-2.47685
1495.4766,387.24,-2.47985
1495.6002,387.34,-2.48224
1495.7232,387.44,-2.48445
1495.8462,387.54,-2.48746
1495.9686,387.64,-2.49171
1496.091,387.74,-2.49625
1496.2134,387.84,-2.49955
1496.3352,387.94,-2.50276
1496.457,388.04,-2.5068
1496.5794,388.14,-2.5107
1496.7024,388.24,-2.51392
1496.8254,388.34,-2.51654
1496.9472,388.44,-2.51928
1497.069,388.54,-2.52238
1497.1908,388.64,-2.5253
1497.3132,388.74,-2.52798
1497.4344,388.84,-2.53053
1497.5562,388.94,-2.53283
1497.678,389.04,-2.53518
1497.7998,389.14,-2.53827
1497.9216,389.24,-2.54197
1498.0428,389.34,-2.54568
1498.1634,389.44,-2.54855
1498.284,389.54,-2.5511
1498.4058,389.64,-2.55479
1498.5276,389.74,-2.55854
1498.6488,389.84,-2.56129
1498.7706,389.94,-2.56391
1498.8924,390.04,-2.56672
1499.0142,390.14,-2.56957
1499.1354,390.24,-2.57297
1499.256,390.34,-2.5769
1499.3772,390.44,-2.58016
1499.4996,390.54,-2.58317
1499.6214,390.64,-2.58692
1499.7432,390.74,-2.58992
1499.8638,390.84,-2.59194
1499.9856,390.94,-2.59529
1500.1068,391.04,-2.59949
1500.2274,391.14,-2.60296
1500.348,391.24,-2.6063
1500.4692,391.34,-2.60979
1500.5904,391.44,-2.61271
1500.711,391.54,-2.6154
1500.8322,391.64,-2.6185
1500.9534,391.74,-2.62186
1501.074,391.84,-2.62544
1501.1946,391.94,-2.62946
1501.3152,392.04,-2.6335
1501.4358,392.14,-2.63704
1501.5558,392.24,-2.64007
1501.6758,392.34,-2.64289
1501.7958,392.44,-2.64594
1501.9164,392.54,-2.64918
1502.0358,392.64,-2.65241
1502.1552,392.74,-2.65575
1502.2752,392.84,-2.65959
1502.3952,392.94,-2.66434
1502.5152,393.04,-2.66892
1502.634,393.14,-2.67214
1502.7534,393.24,-2.67431
1502.8734,393.34,-2.67663
1502.9928,393.44,-2.68067
1503.1122,393.54,-2.6852
1503.2316,393.64,-2.6886
1503.351,393.74,-2.69208
1503.4698,393.84,-2.69582
1503.588,393.94,-2.69845
1503.7068,394.04,-2.70069
1503.8256,394.14,-2.70396
1503.9444,394.24,-2.70808
1504.0632,394.34,-2.71244
1504.1826,394.44,-2.71633
1504.3014,394.54,-2.71989
1504.4196,394.64,-2.72352
1504.5372,394.74,-2.72667
1504.6554,394.84,-2.72908
1504.7736,394.94,-2.73142
1504.8918,395.04,-2.7343
1505.0094,395.14,-2.73797
1505.1276,395.24,-2.74138
1505.2458,395.34,-2.744
1505.3646,395.44,-2.74708
1505.4822,395.54,-2.75119
1505.5998,395.64,-2.7559
1505.7168,395.74,-2.76013
1505.8344,395.84,-2.76302
1505.9526,395.94,-2.76508
1506.0708,396.04,-2.7679
1506.1884,396.14,-2.77359
1506.3054,396.24,-2.77986
1506.4236,396.34,-2.78356
1506.5412,396.44,-2.78635
1506.6582,396.54,-2.78962
1506.7752,396.64,-2.79293
1506.8922,396.74,-2.79634
1507.0098,396.84,-2.80024
1507.1268,396.94,-2.8043
1507.2444,397.04,-2.80818
1507.3614,397.14,-2.81202
1507.479,397.24,-2.81607
1507.596,397.34,-2.82048
1507.713,397.44,-2.82424
1507.83,397.54,-2.8266
1507.947,397.64,-2.82887
1508.0634,397.74,-2.83213
1508.1804,397.84,-2.83656
1508.2968,397.94,-2.84124
1508.4138,398.04,-2.84496
1508.5296,398.14,-2.84811
1508.6454,398.24,-2.85144
1508.7618,398.34,-2.85556
1508.8788,398.44,-2.86004
1508.9952,398.54,-2.86377
1509.111,398.64,-2.86734
1509.2268,398.74,-2.87151
1509.3432,398.84,-2.87538
1509.459,398.94,-2.87907
1509.5748,399.04,-2.88441
1509.6906,399.14,-2.89027
1509.8076,399.24,-2.89421
1509.9234,399.34,-2.89734
1510.0392,399.44,-2.90127
1510.155,399.54,-2.90614
1510.2708,399.64,-2.91123
1510.3866,399.74,-2.9153
1510.5018,399.84,-2.91865
1510.617,399.94,-2.92222
1510.7322,400.04,-2.92617
1510.848,400.14,-2.93041
1510.9638,400.24,-2.93477
1511.079,400.34,-2.93925
1511.1948,400.44,-2.94393
1511.3106,400.54,-2.9485
1511.4252,400.64,-2.95275
1511.5398,400.74,-2.95732
1511.655,400.84,-2.96236
1511.7702,400.94,-2.96723
1511.886,401.04,-2.97176
1512.0012,401.14,-2.97612
1512.1164,401.24,-2.97991
1512.2316,401.34,-2.98302
1512.3462,401.44,-2.98653
1512.4602,401.54,-2.99102
1512.5742,401.64,-2.99608
1512.6882,401.74,-3.00064
1512.8028,401.84,-3.00372
1512.9174,401.94,-3.00727
1513.0314,402.04,-3.0127
1513.1454,402.14,-3.01768
1513.2594,402.24,-3.02087
1513.3734,402.34,-3.02309
1513.4874,402.44,-3.02596
1513.6014,402.54,-3.031
1513.7154,402.64,-3.03642
1513.8288,402.74,-3.04043
1513.9428,402.84,-3.04417
1514.0568,402.94,-3.04852
1514.1708,403.04,-3.05317
1514.2842,403.14,-3.0579
1514.3982,403.24,-3.06261
1514.5128,403.34,-3.06733
1514.6262,403.44,-3.07202
1514.7402,403.54,-3.07623
1514.8542,403.64,-3.08007
1514.9676,403.74,-3.08451
1515.081,403.84,-3.08929
1515.195,403.94,-3.09333
1515.3084,404.04,-3.09727
1515.4218,404.14,-3.10193
1515.5352,404.24,-3.10663
1515.6498,404.34,-3.11092
1515.7638,404.44,-3.11526
1515.8772,404.54,-3.1199
1515.9906,404.64,-3.12477
1516.104,404.74,-3.12928
1516.2162,404.84,-3.13307
1516.329,404.94,-3.13732
1516.4418,405.04,-3.14257
1516.554,405.14,-3.14756
1516.6662,405.24,-3.15185
1516.779,405.34,-3.15609
1516.8918,405.44,-3.16039
1517.004,405.54,-3.1646
1517.1156,405.64,-3.1687
1517.2272,405.74,-3.17277
1517.3394,405.84,-3.17715
1517.451,405.94,-3.18194
1517.5632,406.04,-3.18691
1517.6754,406.14,-3.19179
1517.787,406.24,-3.19635
1517.8992,406.34,-3.20045
1518.0114,406.44,-3.20415
1518.123,406.54,-3.20808
1518.234,406.64,-3.21267
1518.345,406.74,-3.21745
1518.4566,406.84,-3.2223
1518.5676,406.94,-3.22754
1518.6792,407.04,-3.23281
1518.7914,407.14,-3.23738
1518.9036,407.24,-3.24174
1519.0152,407.34,-3.24647
1519.1268,407.44,-3.25054
1519.2384,407.54,-3.25377
1519.35,407.64,-3.2583
1519.461,407.74,-3.26421
1519.572,407.84,-3.26913
1519.6824,407.94,-3.2728
1519.794,408.04,-3.27635
1519.9056,408.14,-3.28007
1520.016,408.24,-3.28395
1520.1258,408.34,-3.28812
1520.2368,408.44,-3.29259
1520.3472,408.54,-3.29719
1520.4576,408.64,-3.3018
1520.5686,408.74,-3.30646
1520.679,408.84,-3.31091
1520.7894,408.94,-3.31474
1520.9004,409.04,-3.31829
1521.0108,409.14,-3.32205
1521.1212,409.24,-3.32603
1521.2316,409.34,-3.33033
1521.3414,409.44,-3.33553
1521.4518,409.54,-3.34131
1521.5622,409.64,-3.34605
1521.6726,409.74,-3.34997
1521.783,409.84,-3.35462
1521.8934,409.94,-3.35954
1522.0038,410.04,-3.36361
1522.1142,410.14,-3.36766
1522.2246,410.24,-3.37261
1522.3344,410.34,-3.37808
1522.4442,410.44,-3.38342
1522.554,410.54,-3.38794
1522.6644,410.64,-3.39156
1522.7748,410.74,-3.39481
1522.8852,410.84,-3.39808
1522.995,410.94,-3.40175
1523.1042,411.04,-3.40647
1523.214,411.14,-3.41249
1523.3238,411.24,-3.41819
1523.4342,411.34,-3.42245
1523.544,411.44,-3.42604
1523.6532,411.54,-3.42972
1523.763,411.64,-3.43386
1523.8722,411.74,-3.43855
1523.9808,411.84,-3.44366
1524.0894,411.94,-3.44883
1524.198,412.04,-3.45358
1524.3072,412.14,-3.45753
1524.4164,412.24,-3.46072
1524.525,412.34,-3.4644
1524.6342,412.44,-3.46923
1524.7428,412.54,-3.47416
1524.8514,412.64,-3.4785
1524.96,412.74,-3.48232
1525.0692,412.84,-3.48601
1525.1778,412.94,-3.4901
1525.2864,413.04,-3.49454
1525.3944,413.14,-3.49894
1525.503,413.24,-3.50314
1525.6122,413.34,-3.50715
1525.7202,413.44,-3.51139
1525.8282,413.54,-3.51613
1525.9362,413.64,-3.52105
1526.0436,413.74,-3.52573
1526.1522,413.84,-3.52964
1526.2602,413.94,-3.5331
1526.3688,414.04,-3.53719
1526.4774,414.14,-3.54193
1526.586,414.24,-3.5466
1526.694,414.34,-3.55092
1526.802,414.44,-3.55488
1526.9094,414.54,-3.5588
1527.0174,414.64,-3.56291
1527.1254,414.74,-3.56693
1527.2334,414.84,-3.57066
1527.3414,414.94,-3.57421
1527.45,415.04,-3.57786
1527.558,415.14,-3.58208
1527.6654,415.24,-3.58671
1527.7734,415.34,-3.59115
1527.8814,415.44,-3.59578
1527.99,415.54,-3.60134
1528.098,415.64,-3.60702
1528.2048,415.74,-3.61175
1528.3122,415.84,-3.61607
1528.4202,415.94,-3.62051
1528.5282,416.04,-3.62418
1528.6362,416.14,-3.62701
1528.7436,416.24,-3.63096
1528.851,416.34,-3.63605
1528.9584,416.44,-3.63975
1529.0658,416.54,-3.64194
1529.1732,416.64,-3.64465
1529.2806,416.74,-3.64837
1529.388,416.84,-3.65255
1529.496,416.94,-3.65659
1529.6034,417.04,-3.66013
1529.7108,417.14,-3.66404
1529.8176,417.24,-3.66914
1529.9244,417.34,-3.67503
1530.0312,417.44,-3.68098
1530.1374,417.54,-3.68602
1530.2442,417.64,-3.68998
1530.351,417.74,-3.69387
1530.4578,417.84,-3.69769
1530.5646,417.94,-3.70036
1530.6714,418.04,-3.70268
1530.7776,418.14,-3.70661
1530.8844,418.24,-3.71157
1530.9918,418.34,-3.71591
1531.098,418.44,-3.71961
1531.2042,418.54,-3.72326
1531.311,418.64,-3.72724
1531.4172,418.74,-3.73168
1531.5234,418.84,-3.73637
1531.6296,418.94,-3.74097
1531.7358,419.04,-3.74513
1531.842,419.14,-3.7488
1531.9482,419.24,-3.75237
1532.0538,419.34,-3.75585
1532.1588,419.44,-3.75887
1532.2644,419.54,-3.76196
1532.37,419.64,-3.76628
1532.4762,419.74,-3.77138
1532.5824,419.84,-3.77586
1532.688,419.94,-3.77948
1532.7942,420.04,-3.78261
1532.8998,420.14,-3.78568
1533.0054,420.24,-3.78906
1533.111,420.34,-3.79282
1533.2166,420.44,-3.79695
1533.3228,420.54,-3.8015
1533.4284,420.64,-3.80615
1533.5346,420.74,-3.80986
1533.6396,420.84,-3.8126
1533.7452,420.94,-3.81609
1533.8514,421.04,-3.82057
1533.957,421.14,-3.82438
1534.0626,421.24,-3.82728
1534.1682,421.34,-3.8304
1534.2732,421.44,-3.83405
1534.3782,421.54,-3.83799
1534.4832,421.64,-3.84204
1534.5888,421.74,-3.84604
1534.6944,421.84,-3.8497
1534.8,421.94,-3.85283
1534.9056,422.04,-3.85588
1535.0106,422.14,-3.85937
1535.1162,422.24,-3.86329
1535.2218,422.34,-3.86747
1535.3268,422.44,-3.87161
1535.4324,422.54,-3.87541
1535.5374,422.64,-3.87867
1535.6424,422.74,-3.88138
1535.7474,422.84,-3.88386
1535.8524,422.94,-3.88662
1535.9574,423.04,-3.89024
1536.0624,423.14,-3.89463
1536.1668,423.24,-3.89905
1536.2712,423.34,-3.90324
1536.375,423.44,-3.90727
1536.4794,423.54,-3.91108
1536.5838,423.64,-3.91457
1536.6882,423.74,-3.91796
1536.7932,423.84,-3.92149
1536.8982,423.94,-3.92506
1537.0032,424.04,-3.92845
1537.1076,424.14,-3.93166
1537.212,424.24,-3.93468
1537.3164,424.34,-3.93752
1537.4208,424.44,-3.94026
1537.5252,424.54,-3.94333
1537.6296,424.64,-3.94694
1537.734,424.74,-3.95078
1537.8378,424.84,-3.95451
1537.9428,424.94,-3.9578
1538.0472,425.04,-3.96087
1538.151,425.14,-3.96452
1538.2548,425.24,-3.96865
1538.3586,425.34,-3.97224
1538.463,425.44,-3.97554
1538.5674,425.54,-3.97973
1538.6706,425.64,-3.98421
1538.775,425.74,-3.98738
1538.8794,425.84,-3.9899
1538.9838,425.94,-3.99343
1539.0876,426.04,-3.99748
1539.1914,426.14,-4.00087
1539.2958,426.24,-4.00392
1539.399,426.34,-4.0073
1539.5022,426.44,-4.01098
1539.606,426.54,-4.0148
1539.7098,426.64,-4.01897
1539.8136,426.74,-4.02364
1539.9168,426.84,-4.02847
1540.0206,426.94,-4.03309
1540.1244,427.04,-4.03722
1540.2282,427.14,-4.04063
1540.3314,427.24,-4.04308
1540.4346,427.34,-4.04483
1540.5378,427.44,-4.04693
1540.641,427.54,-4.0501
1540.7448,427.64,-4.05451
1540.8486,427.74,-4.05952
1540.9524,427.84,-4.06369
1541.055,427.94,-4.06682
1541.1582,428.04,-4.0699
1541.2614,428.14,-4.07346
1541.3652,428.24,-4.07761
1541.4678,428.34,-4.08203
1541.571,428.44,-4.08623
1541.6742,428.54,-4.09015
1541.7768,428.64,-4.094
1541.8788,428.74,-4.09768
1541.982,428.84,-4.10094
1542.0852,428.94,-4.10406
1542.1878,429.04,-4.10743
1542.2904,429.14,-4.11067
1542.393,429.24,-4.11331
1542.4956,429.34,-4.11584
1542.5988,429.44,-4.11899
1542.7014,429.54,-4.1231
1542.804,429.64,-4.1281
1542.9066,429.74,-4.13265
1543.0092,429.84,-4.13574
1543.1124,429.94,-4.1385
1543.215,430.04,-4.14198
1543.317,430.14,-4.14584
1543.419,430.24,-4.14948
1543.5216,430.34,-4.15235
1543.6248,430.44,-4.15444
1543.7274,430.54,-4.15695
1543.83,430.64,-4.1604
1543.9326,430.74,-4.16377
1544.0346,430.84,-4.16671
1544.1372,430.94,-4.17016
1544.2398,431.04,-4.17456
1544.3418,431.14,-4.17947
1544.4444,431.24,-4.1842
1544.5476,431.34,-4.18788
1544.6502,431.44,-4.19057
1544.7528,431.54,-4.19336
1544.8548,431.64,-4.19667
1544.9568,431.74,-4.20028
1545.0588,431.84,-4.20382
1545.1608,431.94,-4.20687
1545.2628,432.04,-4.20938
1545.3648,432.14,-4.21158
1545.4674,432.24,-4.21407
1545.5694,432.34,-4.2175
1545.6708,432.44,-4.22095
1545.7722,432.54,-4.22283
1545.8742,432.64,-4.22456
1545.9762,432.74,-4.2289
1546.0776,432.84,-4.23474
1546.179,432.94,-4.2393
1546.2804,433.04,-4.2425
1546.3818,433.14,-4.24544
1546.4838,433.24,-4.2485
1546.5852,433.34,-4.25179
1546.6872,433.44,-4.25542
1546.7886,433.54,-4.25942
1546.89,433.64,-4.26341
1546.992,433.74,-4.26695
1547.0934,433.84,-4.2704
1547.1948,433.94,-4.27414
1547.2956,434.04,-4.27765
1547.397,434.14,-4.28035
1547.4984,434.24,-4.2828
1547.6004,434.34,-4.28566
1547.7018,434.44,-4.28865
1547.8038,434.54,-4.29147
1547.9052,434.64,-4.29453
1548.0066,434.74,-4.29821
1548.1074,434.84,-4.30205
1548.2094,434.94,-4.30554
1548.3108,435.04,-4.30848
1548.4122,435.14,-4.31093
1548.513,435.24,-4.31344
1548.6138,435.34,-4.3164
1548.7152,435.44,-4.31954
1548.8166,435.54,-4.32244
1548.9174,435.64,-4.32472
1549.0182,435.74,-4.32651
1549.1184,435.84,-4.32916
1549.2198,435.94,-4.33339
1549.3206,436.04,-4.33801
1549.4214,436.14,-4.34183
1549.5228,436.24,-4.34418
1549.6236,436.34,-4.34517
1549.7238,436.44,-4.34633
1549.8246,436.54,-4.34874
1549.9254,436.64,-4.35226
1550.0262,436.74,-4.35641
1550.127,436.84,-4.36034
1550.2284,436.94,-4.36357
1550.3286,437.04,-4.36641
1550.4294,437.14,-4.36916
1550.5296,437.24,-4.37202
1550.6304,437.34,-4.37501
1550.7312,437.44,-4.3778
1550.8314,437.54,-4.38039
1550.9322,437.64,-4.38333
1551.033,437.74,-4.3867
1551.1338,437.84,-4.3898
1551.2346,437.94,-4.39221
1551.3354,438.04,-4.39406
1551.4356,438.14,-4.39572
1551.5364,438.24,-4.3978
1551.6366,438.34,-4.40049
1551.7374,438.44,-4.40341
1551.8376,438.54,-4.40638
1551.9384,438.64,-4.40967
1552.0386,438.74,-4.41316
1552.1394,438.84,-4.4162
1552.239,438.94,-4.41869
1552.3392,439.04,-4.4213
1552.44,439.14,-4.42458
1552.5408,439.24,-4.42879
1552.6416,439.34,-4.43321
1552.7412,439.44,-4.43584
1552.8414,439.54,-4.43687
1552.9416,439.64,-4.43925
1553.0418,439.74,-4.44366
1553.142,439.84,-4.44783
1553.2416,439.94,-4.45087
1553.3418,440.04,-4.45388
1553.442,440.14,-4.45717
1553.5416,440.24,-4.4599
1553.6412,440.34,-4.46207
1553.7408,440.44,-4.46476
1553.841,440.54,-4.46814
1553.9406,440.64,-4.47114
1554.0408,440.74,-4.47359
1554.1404,440.84,-4.47655
1554.24,440.94,-4.48024
1554.3396,441.04,-4.48369
1554.4392,441.14,-4.48656
1554.5388,441.24,-4.48943
1554.6384,441.34,-4.49235
1554.738,441.44,-4.49465
1554.8382,441.54,-4.49651
1554.9378,441.64,-4.49946
1555.0374,441.74,-4.50377
1555.137,441.84,-4.50796
1555.236,441.94,-4.51123
1555.3356,442.04,-4.51393
1555.4352,442.14,-4.51634
1555.5348,442.24,-4.5185
1555.6338,442.34,-4.52068
1555.7334,442.44,-4.52349
1555.833,442.54,-4.5269
1555.932,442.64,-4.52983
1556.031,442.74,-4.53196
1556.13,442.84,-4.53425
1556.229,442.94,-4.53724
1556.328,443.04,-4.54047
1556.4276,443.14,-4.54356
1556.5266,443.24,-4.5464
1556.625,443.34,-4.54898
1556.724,443.44,-4.55143
1556.8236,443.54,-4.55399
1556.9232,443.64,-4.557
1557.0222,443.74,-4.56053
1557.1212,443.84,-4.56394
1557.2202,443.94,-4.56688
1557.3192,444.04,-4.56974
1557.4182,444.14,-4.57279
1557.5172,444.24,-4.5758
1557.6162,444.34,-4.57853
1557.7146,444.44,-4.58075
1557.8136,444.54,-4.58246
1557.912,444.64,-4.58428
1558.0104,444.74,-4.58674
1558.1088,444.84,-4.58998
1558.2072,444.94,-4.59374
1558.3062,445.04,-4.59687
1558.4052,445.14,-4.59864
1558.5036,445.24,-4.60037
1558.6026,445.34,-4.60322
1558.701,445.44,-4.60643
1558.8,445.54,-4.60908
1558.899,445.64,-4.61135
1558.9974,445.74,-4.61365
1559.0958,445.84,-4.61625
1559.1948,445.94,-4.61927
1559.2932,446.04,-4.62253
1559.3916,446.14,-4.62577
1559.49,446.24,-4.62878
1559.5884,446.34,-4.63138
1559.6868,446.44,-4.63372
1559.7852,446.54,-4.63604
1559.8836,446.64,-4.63875
1559.982,446.74,-4.64219
1560.0798,446.84,-4.64585
1560.1776,446.94,-4.64897
1560.2754,447.04,-4.65145
1560.3732,447.14,-4.65353
1560.4716,447.24,-4.6556
1560.57,447.34,-4.65809
1560.669,447.44,-4.6606
1560.7674,447.54,-4.66245
1560.8658,447.64,-4.66423
1560.963,447.74,-4.66721
1561.0608,447.84,-4.67111
1561.1586,447.94,-4.67465
1561.257,448.04,-4.67737
1561.3548,448.14,-4.67944
1561.4532,448.24,-4.68136
1561.5516,448.34,-4.68386
1561.65,448.44,-4.68686
1561.7478,448.54,-4.68961
1561.845,448.64,-4.69187
1561.9428,448.74,-4.69402
1562.04,448.84,-4.69633
1562.1372,448.94,-4.69885
1562.2344,449.04,-4.70168
1562.3322,449.14,-4.70494
1562.43,449.24,-4.70844
1562.5278,449.34,-4.71138
1562.6256,449.44,-4.71361
1562.7234,449.54,-4.71607
1562.8218,449.64,-4.7192
1562.9202,449.74,-4.7221
1563.0186,449.84,-4.72436
1563.1158,449.94,-4.72687
1563.2136,450.04,-4.73011
1563.3102,450.14,-4.73309
1563.408,450.24,-4.73511
1563.5052,450.34,-4.73704
1563.603,450.44,-4.73964
1563.7008,450.54,-4.74237
1563.798,450.64,-4.74466
1563.8952,450.74,-4.74678
1563.9924,450.84,-4.74915
1564.089,450.94,-4.75182
1564.1856,451.04,-4.7547
1564.2828,451.14,-4.75776
1564.38,451.24,-4.76089
1564.4778,451.34,-4.76359
1564.575,451.44,-4.76536
1564.6722,451.54,-4.76703
1564.7694,451.64,-4.76991
1564.8666,451.74,-4.77361
1564.9638,451.84,-4.77687
1565.061,451.94,-4.77965
1565.1582,452.04,-4.78267
1565.2548,452.14,-4.78598
1565.352,452.24,-4.78913
1565.4486,452.34,-4.79199
1565.5452,452.44,-4.79471
1565.6418,452.54,-4.79753
1565.7384,452.64,-4.80069
1565.835,452.74,-4.80404
1565.9322,452.84,-4.80696
1566.0288,452.94,-4.80925
1566.1254,453.04,-4.81153
1566.222,453.14,-4.81406
1566.3186,453.24,-4.81629
1566.4152,453.34,-4.81803
1566.5124,453.44,-4.82008
1566.609,453.54,-4.82306
1566.7056,453.64,-4.8267
1566.8022,453.74,-4.83051
1566.8994,453.84,-4.83386
1566.996,453.94,-4.83637
1567.0926,454.04,-4.83892
1567.1892,454.14,-4.84243
1567.2852,454.24,-4.84623
1567.3818,454.34,-4.84936
1567.4778,454.44,-4.85196
1567.5744,454.54,-4.8545
1567.6704,454.64,-4.85705
1567.7664,454.74,-4.85949
1567.8624,454.84,-4.86191
1567.9578,454.94,-4.86454
1568.0538,455.04,-4.86743
1568.1498,455.14,-4.87045
1568.2458,455.24,-4.87313
1568.3424,455.34,-4.87466
1568.4384,455.44,-4.87533
1568.5338,455.54,-4.87669
1568.6298,455.64,-4.87928
1568.7252,455.74,-4.88201
1568.8212,455.84,-4.88421
1568.9166,455.94,-4.88631
1569.0126,456.04,-4.88859
1569.1086,456.14,-4.89072
1569.2046,456.24,-4.89255
1569.3006,456.34,-4.89471
1569.396,456.44,-4.89776
1569.4914,456.54,-4.90133
1569.5868,456.64,-4.90487
1569.6822,456.74,-4.90789
1569.7782,456.84,-4.91012
1569.8742,456.94,-4.91214
1569.9696,457.04,-4.91481
1570.0656,457.14,-4.91817
1570.161,457.24,-4.92179
1570.257,457.34,-4.92514
1570.3524,457.44,-4.92773
1570.4484,457.54,-4.92962
1570.5438,457.64,-4.93142
1570.6392,457.74,-4.93357
1570.7346,457.84,-4.93624
1570.83,457.94,-4.93937
1570.9254,458.04,-4.94251
1571.0208,458.14,-4.94541
1571.1162,458.24,-4.94823
1571.2116,458.34,-4.95108
1571.307,458.44,-4.95375
1571.4018,458.54,-4.95617
1571.4972,458.64,-4.95877
1571.5926,458.74,-4.96183
1571.6874,458.84,-4.96444
1571.7822,458.94,-4.96575
1571.877,459.04,-4.96682
1571.9724,459.14,-4.96925
1572.0672,459.24,-4.97263
1572.1626,459.34,-4.97569
1572.258,459.44,-4.97834
1572.3534,459.54,-4.98121
1572.4482,459.64,-4.98412
1572.543,459.74,-4.98622
1572.6384,459.84,-4.98759
1572.7338,459.94,-4.98939
1572.8286,460.04,-4.992
1572.9234,460.14,-4.99458
1573.0182,460.24,-4.99667
1573.1136,460.34,-4.99874
1573.209,460.44,-5.00121
1573.3038,460.54,-5.00412
1573.3986,460.64,-5.00738
1573.4934,460.74,-5.01073
1573.5888,460.84,-5.01387
1573.6836,460.94,-5.01663
1573.7784,461.04,-5.01895
1573.8738,461.14,-5.02138
1573.9686,461.24,-5.02459
1574.0634,461.34,-5.02815
1574.1576,461.44,-5.03112
1574.2524,461.54,-5.03362
1574.3472,461.64,-5.03653
1574.442,461.74,-5.03997
1574.5368,461.84,-5.04324
1574.6316,461.94,-5.04603
1574.7258,462.04,-5.04856
1574.8206,462.14,-5.05089
1574.9148,462.24,-5.05278
1575.009,462.34,-5.05411
1575.1038,462.44,-5.05513
1575.198,462.54,-5.05631
1575.2922,462.64,-5.05861
1575.3864,462.74,-5.06273
1575.48,462.84,-5.06754
1575.5742,462.94,-5.07149
1575.6684,463.04,-5.07428
1575.7626,463.14,-5.07623
1575.8568,463.24,-5.07779
1575.951,463.34,-5.07949
1576.0452,463.44,-5.08166
1576.1394,463.54,-5.0844
1576.2336,463.64,-5.08757
1576.3272,463.74,-5.09067
1576.4214,463.84,-5.09345
1576.5156,463.94,-5.09607
1576.6098,464.04,-5.09869
1576.7034,464.14,-5.10142
1576.7982,464.24,-5.1043
1576.8924,464.34,-5.10714
1576.986,464.44,-5.10979
1577.0796,464.54,-5.11241
1577.1732,464.64,-5.11521
1577.2668,464.74,-5.11811
1577.3604,464.84,-5.12085
1577.454,464.94,-5.12336
1577.5476,465.04,-5.12565
1577.6418,465.14,-5.12791
1577.736,465.24,-5.13047
1577.8296,465.34,-5.13337
1577.9232,465.44,-5.13631
1578.0168,465.54,-5.13908
1578.111,465.64,-5.14176
1578.2046,465.74,-5.14444
1578.2982,465.84,-5.14708
1578.3918,465.94,-5.14966
1578.4854,466.04,-5.15218
1578.579,466.14,-5.15475
1578.6726,466.24,-5.15782
1578.7668,466.34,-5.16191
1578.8604,466.44,-5.16647
1578.9534,466.54,-5.17041
1579.0464,466.64,-5.17353
1579.14,466.74,-5.17635
1579.2336,466.84,-5.17927
1579.3266,466.94,-5.1825
1579.4196,467.04,-5.18603
1579.5132,467.14,-5.18953
1579.6062,467.24,-5.19278
1579.6998,467.34,-5.19611
1579.7934,467.44,-5.19975
1579.887,467.54,-5.2034
1579.98,467.64,-5.20668
1580.073,467.74,-5.20966
1580.166,467.84,-5.21258
1580.2596,467.94,-5.21536
1580.3526,468.04,-5.21777
1580.4468,468.14,-5.21984
1580.5404,468.24,-5.22184
1580.634,468.34,-5.22406
1580.7276,468.44,-5.22682
1580.8206,468.54,-5.23024
1580.9142,468.64,-5.23411
1581.0072,468.74,-5.23816
1581.1002,468.84,-5.24204
1581.1932,468.94,-5.2455
1581.2862,469.04,-5.24865
1581.3792,469.14,-5.25171
1581.4722,469.24,-5.25478
1581.5652,469.34,-5.25793
1581.6582,469.44,-5.26113
1581.7518,469.54,-5.26426
1581.8448,469.64,-5.2671
1581.9384,469.74,-5.2693
1582.0314,469.84,-5.27106
1582.1244,469.94,-5.27321
1582.218,470.04,-5.27609
1582.3116,470.14,-5.27906
1582.4046,470.24,-5.2817
1582.4976,470.34,-5.28461
1582.5906,470.44,-5.28827
1582.6842,470.54,-5.29192
1582.7766,470.64,-5.2947
1582.869,470.74,-5.29734
1582.9614,470.84,-5.3011
1583.0538,470.94,-5.3055
1583.1456,471.04,-5.30898
1583.238,471.14,-5.31135
1583.3304,471.24,-5.3138
1583.4228,471.34,-5.31683
1583.5158,471.44,-5.31978
1583.6082,471.54,-5.32223
1583.7006,471.64,-5.32462
1583.7936,471.74,-5.32742
1583.8866,471.84,-5.33072
1583.979,471.94,-5.33442
1584.0714,472.04,-5.33782
1584.1638,472.14,-5.34013
1584.2568,472.24,-5.3418
1584.3492,472.34,-5.34403
1584.4422,472.44,-5.34709
1584.534,472.54,-5.3504
1584.6264,472.64,-5.35358
1584.7182,472.74,-5.35662
1584.8106,472.84,-5.35957
1584.903,472.94,-5.3626
1584.9954,473.04,-5.36582
1585.0878,473.14,-5.36897
1585.1802,473.24,-5.37184
1585.2726,473.34,-5.37469
1585.3656,473.44,-5.37791
1585.458,473.54,-5.3813
1585.5504,473.64,-5.38434
1585.6422,473.74,-5.38702
1585.7346,473.84,-5.38981
1585.8276,473.94,-5.39286
1585.92,474.04,-5.39588
1586.0118,474.14,-5.39878
1586.1036,474.24,-5.40198
1586.196,474.34,-5.40573
1586.2884,474.44,-5.40937
1586.3802,474.54,-5.41222
1586.472,474.64,-5.41454
1586.5632,474.74,-5.41693
1586.6556,474.84,-5.4195
1586.7474,474.94,-5.42211
1586.8392,475.04,-5.4249
1586.931,475.14,-5.42831
1587.0228,475.24,-5.43215
1587.1152,475.34,-5.4353
1587.2076,475.44,-5.43721
1587.2994,475.54,-5.43902
1587.3912,475.64,-5.44174
1587.483,475.74,-5.44508
1587.5754,475.84,-5.44841
1587.6678,475.94,-5.45148
1587.7596,476.04,-5.45421
1587.8508,476.14,-5.45669
1587.9426,476.24,-5.45909
1588.0344,476.34,-5.46151
1588.1262,476.44,-5.46394
1588.2186,476.54,-5.46653
1588.311,476.64,-5.46967
1588.4022,476.74,-5.47346
1588.494,476.84,-5.47699
1588.5864,476.94,-5.47949
1588.6788,477.04,-5.48148
1588.7706,477.14,-5.48381
1588.8624,477.24,-5.48679
1588.9542,477.34,-5.49042
1589.046,477.44,-5.49448
1589.1384,477.54,-5.49861
1589.2302,477.64,-5.50266
1589.3214,477.74,-5.50669
1589.4132,477.84,-5.51057
1589.505,477.94,-5.51378
1589.5968,478.04,-5.51599
1589.6886,478.14,-5.51779
1589.7804,478.24,-5.51989
1589.8716,478.34,-5.52258
1589.9634,478.44,-5.5259
1590.0552,478.54,-5.52953
1590.1464,478.64,-5.53289
1590.2382,478.74,-5.53562
1590.33,478.84,-5.53764
1590.4218,478.94,-5.53924
1590.5136,479.04,-5.54137
1590.6054,479.14,-5.54458
1590.6966,479.24,-5.54829
1590.7878,479.34,-5.55186
1590.879,479.44,-5.55515
1590.9702,479.54,-5.55818
1591.0614,479.64,-5.56113
1591.152,479.74,-5.56422
1591.2432,479.84,-5.5671
1591.3344,479.94,-5.56899
1591.4262,480.04,-5.57012
1591.5174,480.14,-5.57212
1591.6086,480.24,-5.57572
1591.6998,480.34,-5.5793
1591.791,480.44,-5.58154
1591.8822,480.54,-5.5835
1591.9734,480.64,-5.58665
1592.064,480.74,-5.59076
1592.1552,480.84,-5.59488
1592.2464,480.94,-5.59854
1592.3376,481.04,-5.60162
1592.4288,481.14,-5.60417
1592.52,481.24,-5.60644
1592.6106,481.34,-5.6087
1592.7012,481.44,-5.61109
1592.7918,481.54,-5.61373
1592.883,481.64,-5.61643
1592.9736,481.74,-5.61898
1593.0642,481.84,-5.6216
1593.1548,481.94,-5.62463
1593.246,482.04,-5.62792
1593.3372,482.14,-5.63097
1593.4278,482.24,-5.63374
1593.519,482.34,-5.63672
1593.6108,482.44,-5.64016
1593.702,482.54,-5.64365
1593.7926,482.64,-5.64683
1593.8832,482.74,-5.64983
1593.9738,482.84,-5.65285
1594.0644,482.94,-5.6557
1594.1556,483.04,-5.65805
1594.2468,483.14,-5.66035
1594.338,483.24,-5.66355
1594.4292,483.34,-5.66767
1594.5198,483.44,-5.67154
1594.611,483.54,-5.67442
1594.7022,483.64,-5.67665
1594.7928,483.74,-5.67863
1594.8834,483.84,-5.68045
1594.974,483.94,-5.68219
1595.0652,484.04,-5.68412
1595.1558,484.14,-5.68661
1595.2464,484.24,-5.68963
1595.3376,484.34,-5.69287
1595.4282,484.44,-5.69603
1595.5188,484.54,-5.69888
1595.6094,484.64,-5.70138
1595.7006,484.74,-5.70395
1595.7912,484.84,-5.70686
1595.8824,484.94,-5.7096
1595.9724,485.04,-5.71162
1596.063,485.14,-5.71351
1596.153,485.24,-5.71627
1596.2436,485.34,-5.71983
1596.3342,485.44,-5.72328
1596.4248,485.54,-5.72631
1596.5154,485.64,-5.72945
1596.606,485.74,-5.73299
1596.6966,485.84,-5.7365
1596.7866,485.94,-5.73954
1596.8766,486.04,-5.74213
1596.9672,486.14,-5.74449
1597.0572,486.24,-5.74689
1597.1472,486.34,-5.74964
1597.2372,486.44,-5.75284
1597.3272,486.54,-5.75636
1597.4172,486.64,-5.75998
1597.5078,486.74,-5.76331
1597.5984,486.84,-5.76609
1597.689,486.94,-5.76842
1597.7796,487.04,-5.77049
1597.8702,487.14,-5.77273
1597.9602,487.24,-5.77561
1598.0508,487.34,-5.77901
1598.1408,487.44,-5.78251
1598.2308,487.54,-5.78591
1598.3214,487.64,-5.78935
1598.4108,487.74,-5.79287
1598.5014,487.84,-5.79639
1598.592,487.94,-5.79977
1598.6826,488.04,-5.80269
1598.7732,488.14,-5.80491
1598.8638,488.24,-5.80692
1598.9544,488.34,-5.80951
1599.0444,488.44,-5.81277
1599.1344,488.54,-5.81627
1599.2244,488.64,-5.81962
1599.3144,488.74,-5.82247
1599.4044,488.84,-5.82472
1599.495,488.94,-5.82687
1599.585,489.04,-5.82944
1599.6756,489.14,-5.8325
1599.7662,489.24,-5.83598
1599.8562,489.34,-5.83935
1599.9462,489.44,-5.84188
1600.0362,489.54,-5.8438
1600.1262,489.64,-5.84623
1600.2162,489.74,-5.84963
1600.3062,489.84,-5.85328
1600.3956,489.94,-5.85659
1600.485,490.04,-5.85987
1600.575,490.14,-5.86348
1600.6644,490.24,-5.86727
1600.7544,490.34,-5.87082
1600.8438,490.44,-5.87402
1600.9338,490.54,-5.8769
1601.0238,490.64,-5.87956
1601.1138,490.74,-5.88215
1601.2032,490.84,-5.88489
1601.2926,490.94,-5.88816
1601.382,491.04,-5.89219
1601.4714,491.14,-5.8963
1601.5608,491.24,-5.89959
1601.6502,491.34,-5.90212
1601.7402,491.44,-5.90455
1601.8302,491.54,-5.90708
1601.9196,491.64,-5.90938
1602.0096,491.74,-5.91145
1602.099,491.84,-5.91406
1602.1884,491.94,-5.91774
1602.2778,492.04,-5.92159
1602.3672,492.14,-5.9245
1602.4566,492.24,-5.92678
1602.5466,492.34,-5.92938
1602.636,492.44,-5.9326
1602.726,492.54,-5.93603
1602.8154,492.64,-5.93934
1602.9048,492.74,-5.94237
1602.9942,492.84,-5.94506
1603.0842,492.94,-5.94767
1603.1736,493.04,-5.9505
1603.263,493.14,-5.95367
1603.3524,493.24,-5.95719
1603.4418,493.34,-5.96088
1603.5312,493.44,-5.9644
1603.6206,493.54,-5.96757
1603.7094,493.64,-5.9704
1603.7988,493.74,-5.97301
1603.8888,493.84,-5.97571
1603.9782,493.94,-5.97876
1604.0676,494.04,-5.98204
1604.1564,494.14,-5.9853
1604.2458,494.24,-5.98831
1604.3352,494.34,-5.99086
1604.424,494.44,-5.9931
1604.5134,494.54,-5.99565
1604.6028,494.64,-5.99888
1604.6922,494.74,-6.0025
1604.781,494.84,-6.00614
1604.8698,494.94,-6.00964
1604.9592,495.04,-6.01291
1605.0486,495.14,-6.01607
1605.1374,495.24,-6.01938
1605.2268,495.34,-6.02289
1605.3156,495.44,-6.02644
1605.405,495.54,-6.02985
1605.4938,495.64,-6.03307
1605.5826,495.74,-6.03612
1605.672,495.84,-6.03935
1605.7614,495.94,-6.04315
1605.8502,496.04,-6.04703
1605.939,496.14,-6.04999
1606.0272,496.24,-6.05194
1606.116,496.34,-6.0538
1606.2048,496.44,-6.05626
1606.2936,496.54,-6.05915
1606.3824,496.64,-6.06221
1606.4712,496.74,-6.0652
1606.56,496.84,-6.0679
1606.6482,496.94,-6.0705
1606.737,497.04,-6.07339
1606.8258,497.14,-6.07675
1606.9152,497.24,-6.08041
1607.0034,497.34,-6.08424
1607.0922,497.44,-6.08816
1607.181,497.54,-6.09205
1607.2704,497.64,-6.09537
1607.3592,497.74,-6.09757
1607.4486,497.84,-6.09935
1607.5374,497.94,-6.10215
1607.6262,498.04,-6.10622
1607.7144,498.14,-6.11028
1607.8032,498.24,-6.11353
1607.892,498.34,-6.1166
1607.9814,498.44,-6.1202
1608.0702,498.54,-6.12418
1608.159,498.64,-6.12817
1608.2478,498.74,-6.13194
1608.3366,498.84,-6.13534
1608.426,498.94,-6.13836
1608.5154,499.04,-6.14116
1608.6042,499.14,-6.14397
1608.693,499.24,-6.14718
1608.7818,499.34,-6.15106
1608.8706,499.44,-6.15525
1608.9588,499.54,-6.1592
1609.0482,499.64,-6.16272
1609.137,499.74,-6.16584
1609.2252,499.84,-6.16873
1609.3134,499.94,-6.17182
1609.4022,500.04,-6.17525
1609.4904,500.14,-6.17851
1609.5792,500.24,-6.18117
1609.6674,500.34,-6.18374
1609.7562,500.44,-6.18701
1609.8444,500.54,-6.19107
1609.9326,500.64,-6.19548
1610.0214,500.74,-6.19978
1610.1102,500.84,-6.20345
1610.1984,500.94,-6.20629
1610.2872,501.04,-6.20908
1610.3754,501.14,-6.21258
1610.4636,501.24,-6.21626
1610.5518,501.34,-6.21916
1610.64,501.44,-6.22143
1610.7282,501.54,-6.22409
1610.8164,501.64,-6.22761
1610.9046,501.74,-6.23157
1610.9928,501.84,-6.23553
1611.081,501.94,-6.2393
1611.1692,502.04,-6.24274
1611.2574,502.14,-6.24609
1611.3456,502.24,-6.24969
1611.4344,502.34,-6.25346
1611.5226,502.44,-6.25686
1611.6108,502.54,-6.25977
1611.699,502.64,-6.26283
1611.7878,502.74,-6.26657
1611.8766,502.84,-6.27071
1611.9648,502.94,-6.27482
1612.0536,503.04,-6.27878
1612.1418,503.14,-6.28269
1612.2306,503.24,-6.28662
1612.3194,503.34,-6.29064
1612.407,503.44,-6.29468
1612.4952,503.54,-6.29837
1612.5828,503.64,-6.30145
1612.671,503.74,-6.30436
1612.7592,503.84,-6.30767
1612.8474,503.94,-6.31129
1612.935,504.04,-6.31468
1613.0232,504.14,-6.31777
1613.1108,504.24,-6.32111
1613.199,504.34,-6.32497
1613.2866,504.44,-6.32868
1613.3748,504.54,-6.33154
1613.463,504.64,-6.3337
1613.5506,504.74,-6.3356
1613.6388,504.84,-6.33782
1613.7264,504.94,-6.34108
1613.8146,505.04,-6.34549
1613.9028,505.14,-6.35026
1613.9904,505.24,-6.35467
1614.0786,505.34,-6.3587
1614.1662,505.44,-6.36246
1614.2544,505.54,-6.36598
1614.342,505.64,-6.36926
1614.4296,505.74,-6.37228
1614.5178,505.84,-6.37508
1614.6054,505.94,-6.37775
1614.6936,506.04,-6.38065
1614.7806,506.14,-6.38406
1614.8682,506.24,-6.38767
1614.9558,506.34,-6.39101
1615.0434,506.44,-6.39407
1615.1316,506.54,-6.39711
1615.2192,506.64,-6.40031
1615.3068,506.74,-6.40366
1615.3944,506.84,-6.40715
1615.482,506.94,-6.4107
1615.5696,507.04,-6.41425
1615.6578,507.14,-6.41778
1615.7454,507.24,-6.42129
1615.833,507.34,-6.42474
1615.9206,507.44,-6.42804
1616.0088,507.54,-6.43124
1616.0964,507.64,-6.43452
1616.184,507.74,-6.43805
1616.2722,507.84,-6.44165
1616.3592,507.94,-6.44506
1616.4462,508.04,-6.44822
1616.5338,508.14,-6.45116
1616.6214,508.24,-6.45414
1616.7096,508.34,-6.45763
1616.7972,508.44,-6.46186
1616.8842,508.54,-6.46625
1616.9718,508.64,-6.47012
1617.0594,508.74,-6.47332
1617.1464,508.84,-6.47592
1617.234,508.94,-6.4784
1617.321,509.04,-6.48158
1617.4086,509.14,-6.48573
1617.4956,509.24,-6.49006
1617.5832,509.34,-6.49387
1617.6708,509.44,-6.49744
1617.7578,509.54,-6.50127
1617.8454,509.64,-6.5053
1617.9324,509.74,-6.50906
1618.02,509.84,-6.5125
1618.1076,509.94,-6.51617
1618.1946,510.04,-6.52036
1618.2822,510.14,-6.52458
1618.3692,510.24,-6.52825
1618.4562,510.34,-6.53146
1618.5432,510.44,-6.53462
1618.6302,510.54,-6.53772
1618.7178,510.64,-6.54042
1618.8042,510.74,-6.54267
1618.8912,510.84,-6.5451
1618.9782,510.94,-6.5483
1619.0658,511.04,-6.55198
1619.1528,511.14,-6.5556
1619.2398,511.24,-6.55902
1619.3262,511.34,-6.56239
1619.4132,511.44,-6.5658
1619.5008,511.54,-6.56927
1619.5878,511.64,-6.57284
1619.6748,511.74,-6.57654
1619.7618,511.84,-6.58042
1619.8482,511.94,-6.5843
1619.9352,512.04,-6.58789
1620.0222,512.14,-6.59113
1620.1092,512.24,-6.59425
1620.1968,512.34,-6.59746
1620.2838,512.44,-6.60073
1620.3708,512.54,-6.60404
1620.4572,512.64,-6.60747
1620.5442,512.74,-6.61117
1620.6312,512.84,-6.61487
1620.7182,512.94,-6.61793
1620.8052,513.04,-6.62008
1620.8922,513.14,-6.62191
1620.9792,513.24,-6.62405
1621.0662,513.34,-6.62667
1621.1532,513.44,-6.62978
1621.2396,513.54,-6.63302
1621.3266,513.64,-6.6357
1621.4136,513.74,-6.63772
1621.5,513.84,-6.63992
1621.587,513.94,-6.64301
1621.6734,514.04,-6.64684
1621.7604,514.14,-6.65103
1621.8474,514.24,-6.655
1621.9344,514.34,-6.65809
1622.0214,514.44,-6.6604
1622.1084,514.54,-6.66304
1622.1948,514.64,-6.66673
1622.2818,514.74,-6.6708
1622.3688,514.84,-6.67447
1622.4558,514.94,-6.67771
1622.5428,515.04,-6.68088
1622.6292,515.14,-6.68412
1622.7156,515.24,-6.68739
1622.802,515.34,-6.69059
1622.8878,515.44,-6.6936
1622.9742,515.54,-6.69634
1623.0612,515.64,-6.69909
1623.1476,515.74,-6.70224
1623.2346,515.84,-6.70574
1623.321,515.94,-6.70916
1623.4074,516.04,-6.71234
1623.4944,516.14,-6.7156
1623.5808,516.24,-6.71923
1623.6672,516.34,-6.72307
1623.7536,516.44,-6.72682
1623.8406,516.54,-6.73054
1623.927,516.64,-6.73448
1624.0134,516.74,-6.73859
1624.0998,516.84,-6.7422
1624.1868,516.94,-6.74488
1624.2732,517.04,-6.7473
1624.3602,517.14,-6.75035
1624.4466,517.24,-6.75427
1624.533,517.34,-6.75888
1624.6188,517.44,-6.76372
1624.7052,517.54,-6.76798
1624.7916,517.64,-6.77114
1624.878,517.74,-6.77378
1624.9644,517.84,-6.77664
1625.0508,517.94,-6.77973
1625.1366,518.04,-6.78274
1625.223,518.14,-6.78565
1625.3094,518.24,-6.78887
1625.3964,518.34,-6.79266
1625.4828,518.44,-6.79681
1625.5692,518.54,-6.80106
1625.6556,518.64,-6.80516
1625.742,518.74,-6.80885
1625.8278,518.84,-6.81217
1625.9142,518.94,-6.81544
1626,519.04,-6.81889
1626.0864,519.14,-6.8225
1626.1722,519.24,-6.82621
1626.258,519.34,-6.83009
1626.3438,519.44,-6.83421
1626.4296,519.54,-6.83834
1626.5154,519.64,-6.8419
1626.6012,519.74,-6.84474
1626.687,519.84,-6.84759
1626.7728,519.94,-6.85112
1626.8586,520.04,-6.8549
1626.9444,520.14,-6.85804
1627.0302,520.24,-6.8604
1627.116,520.34,-6.86249
1627.2024,520.44,-6.86473
1627.2882,520.54,-6.86732
1627.374,520.64,-6.87036
1627.4598,520.74,-6.87366
1627.5462,520.84,-6.87694
1627.632,520.94,-6.88007
1627.7178,521.04,-6.88313
1627.8042,521.14,-6.88617
1627.8906,521.24,-6.88922
1627.9764,521.34,-6.89231
1628.0616,521.44,-6.89543
1628.1474,521.54,-6.89857
1628.2338,521.64,-6.90169
1628.3196,521.74,-6.90474
1628.4048,521.84,-6.9077
1628.4906,521.94,-6.91053
1628.577,522.04,-6.91324
1628.6634,522.14,-6.91571
1628.7498,522.24,-6.91782
1628.8362,522.34,-6.91979
1628.922,522.44,-6.92212
1629.0084,522.54,-6.92495
1629.0948,522.64,-6.92783
1629.1812,522.74,-6.93039
1629.2682,522.84,-6.93314
1629.3546,522.94,-6.93676
1629.4404,523.04,-6.94101
1629.5268,523.14,-6.94498
1629.6126,523.24,-6.94818
1629.6978,523.34,-6.95086
1629.7836,523.44,-6.95332
1629.87,523.54,-6.95578
1629.9558,523.64,-6.95843
1630.0422,523.74,-6.96119
1630.1286,523.84,-6.96383
1630.2144,523.94,-6.96633
1630.2996,524.04,-6.96905
1630.3854,524.14,-6.97217
1630.4712,524.24,-6.97522
1630.557,524.34,-6.97763
1630.6428,524.44,-6.97977
1630.7292,524.54,-6.98258
1630.8144,524.64,-6.98622
1630.9002,524.74,-6.98962
1630.9866,524.84,-6.99198
1631.0724,524.94,-6.99408
1631.1576,525.04,-6.99695
1631.2434,525.14,-7.00069
1631.3286,525.24,-7.00474
1631.4138,525.34,-7.0086
1631.4996,525.44,-7.01176
1631.5848,525.54,-7.01397
1631.67,525.64,-7.01586
1631.7552,525.74,-7.01826
1631.8404,525.84,-7.02124
1631.9256,525.94,-7.02438
1632.0108,526.04,-7.02742
1632.0966,526.14,-7.03041
1632.1818,526.24,-7.03342
1632.2676,526.34,-7.03646
1632.3534,526.44,-7.03953
1632.4386,526.54,-7.04252
1632.5232,526.64,-7.04523
1632.6084,526.74,-7.04757
1632.693,526.84,-7.04967
1632.7788,526.94,-7.05166
1632.864,527.04,-7.05389
1632.9492,527.14,-7.05668
1633.0344,527.24,-7.05991
1633.119,527.34,-7.06302
1633.2048,527.44,-7.06571
1633.29,527.54,-7.06817
1633.3752,527.64,-7.0706
1633.4604,527.74,-7.07298
1633.5456,527.84,-7.07522
1633.6308,527.94,-7.07745
1633.716,528.04,-7.07997
1633.8018,528.14,-7.08293
1633.8876,528.24,-7.08611
1633.9728,528.34,-7.08926
1634.0574,528.44,-7.09224
1634.1426,528.54,-7.09493
1634.2278,528.64,-7.09748
1634.3136,528.74,-7.10032
1634.3988,528.84,-7.10362
1634.484,528.94,-7.107
1634.5692,529.04,-7.10999
1634.6544,529.14,-7.11245
1634.7396,529.24,-7.11435
1634.8254,529.34,-7.11602
1634.9106,529.44,-7.11822
1634.9964,529.54,-7.12129
1635.0816,529.64,-7.12441
1635.1674,529.74,-7.12672
1635.2532,529.84,-7.12868
1635.3384,529.94,-7.13133
1635.423,530.04,-7.13488
1635.5082,530.14,-7.13863
1635.594,530.24,-7.142
1635.6792,530.34,-7.14502
1635.7644,530.44,-7.14784
1635.849,530.54,-7.15061
1635.9342,530.64,-7.15352
1636.0194,530.74,-7.15657
1636.1046,530.84,-7.15955
1636.1898,530.94,-7.16232
1636.275,531.04,-7.16501
1636.3596,531.14,-7.16777
1636.4448,531.24,-7.17054
1636.53,531.34,-7.17308
1636.6152,531.44,-7.17547
1636.7004,531.54,-7.17817
1636.7856,531.64,-7.18145
1636.8702,531.74,-7.18478
1636.9554,531.84,-7.18747
1637.0406,531.94,-7.18998
1637.1258,532.04,-7.19347
1637.211,532.14,-7.19816
1637.2962,532.24,-7.20268
1637.3814,532.34,-7.20585
1637.466,532.44,-7.20812
1637.5506,532.54,-7.21039
1637.6352,532.64,-7.21305
1637.7204,532.74,-7.21618
1637.805,532.84,-7.21975
1637.8896,532.94,-7.22362
1637.9748,533.04,-7.2276
1638.06,533.14,-7.23149
1638.1446,533.24,-7.23508
1638.2298,533.34,-7.23834
1638.3144,533.44,-7.2414
1638.399,533.54,-7.24443
1638.4842,533.64,-7.24764
1638.5688,533.74,-7.2512
1638.6534,533.84,-7.25485
1638.738,533.94,-7.25816
1638.8226,534.04,-7.26117
1638.9072,534.14,-7.26448
1638.9918,534.24,-7.26846
1639.0764,534.34,-7.2727
1639.161,534.44,-7.27668
1639.2462,534.54,-7.28041
1639.3308,534.64,-7.28412
1639.4154,534.74,-7.28789
1639.5006,534.84,-7.29149
1639.5852,534.94,-7.29474
1639.6698,535.04,-7.2977
1639.7544,535.14,-7.30047
1639.839,535.24,-7.30315
1639.923,535.34,-7.30588
1640.0076,535.44,-7.30867
1640.0928,535.54,-7.31137
1640.1774,535.64,-7.31385
1640.2626,535.74,-7.31633
1640.3466,535.84,-7.31906
1640.4312,535.94,-7.32204
1640.5158,536.04,-7.32501
1640.6004,536.14,-7.32777
1640.685,536.24,-7.33024
1640.7696,536.34,-7.33238
1640.8542,536.44,-7.33443
1640.9388,536.54,-7.33671
1641.024,536.64,-7.33934
1641.1086,536.74,-7.34214
1641.1926,536.84,-7.34503
1641.2766,536.94,-7.34812
1641.3612,537.04,-7.35153
1641.4464,537.14,-7.35508
1641.531,537.24,-7.3584
1641.6156,537.34,-7.36133
1641.6996,537.44,-7.364
1641.7842,537.54,-7.36655
1641.8694,537.64,-7.36903
1641.954,537.74,-7.37148
1642.038,537.84,-7.37407
1642.1226,537.94,-7.377
1642.2072,538.04,-7.38026
1642.2918,538.14,-7.3834
1642.3764,538.24,-7.38604
1642.461,538.34,-7.38849
1642.545,538.44,-7.39125
1642.6296,538.54,-7.39422
1642.7142,538.64,-7.39671
1642.7982,538.74,-7.39833
1642.8822,538.84,-7.3994
1642.9668,538.94,-7.40038
1643.0508,539.04,-7.40179
1643.1354,539.14,-7.4042
1643.2194,539.24,-7.40748
1643.3034,539.34,-7.41067
1643.388,539.44,-7.41316
1643.472,539.54,-7.4157
1643.556,539.64,-7.41928
1643.6406,539.74,-7.42363
1643.7252,539.84,-7.42771
1643.8098,539.94,-7.43112
1643.8944,540.04,-7.43453
1643.9784,540.14,-7.43852
1644.0624,540.24,-7.44277
1644.1464,540.34,-7.44666
1644.2304,540.44,-7.45011
1644.3144,540.54,-7.45342
1644.3984,540.64,-7.45675
1644.4824,540.74,-7.45977
1644.5664,540.84,-7.46216
1644.6504,540.94,-7.46416
1644.7344,541.04,-7.46625
1644.8184,541.14,-7.46857
1644.9024,541.24,-7.4709
1644.987,541.34,-7.47308
1645.0716,541.44,-7.47544
1645.1556,541.54,-7.4784
1645.2396,541.64,-7.48201
1645.3236,541.74,-7.48608
1645.4076,541.84,-7.49042
1645.4922,541.94,-7.49479
1645.5768,542.04,-7.49902
1645.6608,542.14,-7.50332
1645.7448,542.24,-7.50801
1645.8288,542.34,-7.51285
1645.9128,542.44,-7.51706
1645.9968,542.54,-7.52024
1646.0814,542.64,-7.52305
1646.1654,542.74,-7.52618
1646.2488,542.84,-7.52955
1646.3334,542.94,-7.53267
1646.4174,543.04,-7.53532
1646.5014,543.14,-7.53762
1646.5854,543.24,-7.53971
1646.6694,543.34,-7.54178
1646.7534,543.44,-7.544
1646.8374,543.54,-7.54659
1646.9214,543.64,-7.54974
1647.0054,543.74,-7.55337
1647.0894,543.84,-7.55681
1647.1734,543.94,-7.5595
1647.2574,544.04,-7.56177
1647.3414,544.14,-7.56424
1647.4248,544.24,-7.56704
1647.5082,544.34,-7.56978
1647.5922,544.44,-7.57216
1647.6762,544.54,-7.57424
1647.7602,544.64,-7.57614
1647.8442,544.74,-7.57803
1647.9282,544.84,-7.58011
1648.0116,544.94,-7.58243
1648.0956,545.04,-7.58479
1648.179,545.14,-7.58702
1648.263,545.24,-7.5891
1648.347,545.34,-7.59107
1648.431,545.44,-7.59302
1648.515,545.54,-7.5951
1648.599,545.64,-7.59738
1648.683,545.74,-7.59964
1648.767,545.84,-7.60171
1648.851,545.94,-7.60376
1648.935,546.04,-7.60613
1649.0184,546.14,-7.60888
1649.1018,546.24,-7.61171
1649.1858,546.34,-7.6144
1649.2698,546.44,-7.61716
1649.3538,546.54,-7.62023
1649.4378,546.64,-7.62342
1649.5212,546.74,-7.62617
1649.6052,546.84,-7.62831
1649.6892,546.94,-7.63029
1649.7726,547.04,-7.63257
1649.856,547.14,-7.63517
1649.94,547.24,-7.63796
1650.024,547.34,-7.64073
1650.108,547.44,-7.64316
1650.1914,547.54,-7.64511
1650.2754,547.64,-7.64698
1650.3588,547.74,-7.64924
1650.4428,547.84,-7.65191
1650.5268,547.94,-7.65478
1650.6108,548.04,-7.65764
1650.6942,548.14,-7.66031
1650.7782,548.24,-7.66271
1650.8616,548.34,-7.66511
1650.945,548.44,-7.66786
1651.0284,548.54,-7.67078
1651.1124,548.64,-7.6732
1651.1958,548.74,-7.67486
1651.2792,548.84,-7.67661
1651.3626,548.94,-7.6793
1651.446,549.04,-7.6825
1651.53,549.14,-7.68504
1651.6134,549.24,-7.68643
1651.6974,549.34,-7.68706
1651.7814,549.44,-7.68736
1651.8648,549.54,-7.68765
1651.9482,549.64,-7.68821
1652.0322,549.74,-7.68937
1652.1162,549.84,-7.69147
1652.2002,549.94,-7.69447
1652.2836,550.04,-7.69734
1652.3676,550.14,-7.69914
1652.451,550.24,-7.70031
1652.5344,550.34,-7.70189
1652.6178,550.44,-7.70428
1652.7012,550.54,-7.70697
1652.7852,550.64,-7.70949
1652.8686,550.74,-7.7115
1652.952,550.84,-7.71272
1653.0354,550.94,-7.71358
1653.1188,551.04,-7.715
1653.2022,551.14,-7.71723
1653.2856,551.24,-7.71921
1653.369,551.34,-7.71994
1653.453,551.44,-7.72021
1653.5364,551.54,-7.72149
1653.6198,551.64,-7.72409
1653.7038,551.74,-7.72701
1653.7872,551.84,-7.72943
1653.8712,551.94,-7.73151
1653.9546,552.04,-7.73361
1654.038,552.14,-7.7356
1654.1214,552.24,-7.73707
1654.2048,552.34,-7.73797
1654.2888,552.44,-7.73895
1654.3722,552.54,-7.74061
1654.455,552.64,-7.74256
1654.5384,552.74,-7.74407
1654.6218,552.84,-7.74516
1654.7052,552.94,-7.74664
1654.7886,553.04,-7.74904
1654.8726,553.14,-7.75178
1654.956,553.24,-7.75414
1655.0394,553.34,-7.75592
1655.1234,553.44,-7.75732
1655.2068,553.54,-7.75863
1655.2902,553.64,-7.76033
1655.3736,553.74,-7.76278
1655.4564,553.84,-7.76556
1655.5398,553.94,-7.76803
1655.6232,554.04,-7.76993
1655.7066,554.14,-7.77145
1655.79,554.24,-7.77279
1655.8734,554.34,-7.77417
1655.9568,554.44,-7.77575
1656.0402,554.54,-7.77756
1656.123,554.64,-7.77952
1656.2064,554.74,-7.78154
1656.2892,554.84,-7.78359
1656.3726,554.94,-7.78564
1656.456,555.04,-7.78778
1656.5394,555.14,-7.79012
1656.6222,555.24,-7.79257
1656.7056,555.34,-7.79481
1656.789,555.44,-7.79658
1656.8724,555.54,-7.79788
1656.9558,555.64,-7.79876
1657.0392,555.74,-7.79946
1657.122,555.84,-7.80033
1657.2054,555.94,-7.80155
1657.2888,556.04,-7.80294
1657.3722,556.14,-7.80429
1657.455,556.24,-7.80549
1657.5384,556.34,-7.80643
1657.6212,556.44,-7.80726
1657.7046,556.54,-7.80834
1657.7874,556.64,-7.80997
1657.8708,556.74,-7.81209
1657.9542,556.84,-7.81454
1658.0376,556.94,-7.81698
1658.1216,557.04,-7.81897
1658.2044,557.14,-7.82032
1658.2878,557.24,-7.82132
1658.3706,557.34,-7.82233
1658.454,557.44,-7.8237
1658.5374,557.54,-7.82578
1658.6208,557.64,-7.82856
1658.7042,557.74,-7.83159
1658.7876,557.84,-7.83448
1658.871,557.94,-7.83705
1658.9544,558.04,-7.83918
1659.0372,558.14,-7.84082
1659.1206,558.24,-7.842
1659.2034,558.34,-7.84286
1659.2868,558.44,-7.84381
1659.3696,558.54,-7.84518
1659.4524,558.64,-7.8469
1659.5358,558.74,-7.8487
1659.6192,558.84,-7.85043
1659.702,558.94,-7.85209
1659.7848,559.04,-7.85369
1659.8676,559.14,-7.85527
1659.951,559.24,-7.85688
1660.0338,559.34,-7.85858
1660.1172,559.44,-7.86041
1660.2006,559.54,-7.86237
1660.2834,559.64,-7.8643
1660.3668,559.74,-7.86612
1660.4496,559.84,-7.86801
1660.533,559.94,-7.87029
1660.6158,560.04,-7.87303
1660.6986,560.14,-7.87597
1660.7814,560.24,-7.87883
1660.8648,560.34,-7.88131
1660.9476,560.44,-7.88318
1661.031,560.54,-7.88453
1661.1138,560.64,-7.88582
1661.1966,560.74,-7.88737
1661.2794,560.84,-7.88919
1661.3622,560.94,-7.89124
1661.445,561.04,-7.89333
1661.5278,561.14,-7.8952
1661.6112,561.24,-7.89667
1661.694,561.34,-7.89768
1661.7774,561.44,-7.89828
1661.8602,561.54,-7.89888
1661.943,561.64,-7.89998
1662.0264,561.74,-7.90162
1662.1092,561.84,-7.90339
1662.1926,561.94,-7.90494
1662.2754,562.04,-7.90607
1662.3588,562.14,-7.90667
1662.4416,562.24,-7.90704
1662.5244,562.34,-7.90771
1662.6072,562.44,-7.90895
1662.6894,562.54,-7.91059
1662.7722,562.64,-7.91239
1662.855,562.74,-7.9141
1662.9384,562.84,-7.91549
1663.0212,562.94,-7.91656
1663.104,563.04,-7.91761
1663.1862,563.14,-7.91887
1663.269,563.24,-7.92049
1663.3524,563.34,-7.92251
1663.4358,563.44,-7.92459
1663.5186,563.54,-7.9261
1663.6008,563.64,-7.92677
1663.6836,563.74,-7.92715
1663.7664,563.84,-7.92781
1663.8492,563.94,-7.92885
1663.9326,564.04,-7.93017
1664.0154,564.14,-7.9317
1664.0982,564.24,-7.93345
1664.181,564.34,-7.93535
1664.2638,564.44,-7.93694
1664.346,564.54,-7.93775
1664.4288,564.64,-7.93795
1664.511,564.74,-7.93834
1664.5938,564.84,-7.9394
1664.6766,564.94,-7.94086
1664.7594,565.04,-7.9423
1664.8422,565.14,-7.94347
1664.925,565.24,-7.9442
1665.0078,565.34,-7.94456
1665.0912,565.44,-7.945
1665.174,565.54,-7.94593
1665.2574,565.64,-7.94723
1665.3402,565.74,-7.94862
1665.423,565.84,-7.94982
1665.5052,565.94,-7.95059
1665.588,566.04,-7.95087
1665.6708,566.14,-7.95123
1665.7536,566.24,-7.95228
1665.8364,566.34,-7.95397
1665.9192,566.44,-7.95572
1666.0014,566.54,-7.95722
1666.0836,566.64,-7.95867
1666.167,566.74,-7.96028
1666.2498,566.84,-7.96165
1666.3326,566.94,-7.96216
1666.4154,567.04,-7.9618
1666.4976,567.14,-7.9614
1666.5804,567.24,-7.96164
1666.6632,567.34,-7.96253
1666.7454,567.44,-7.96385
1666.8276,567.54,-7.96533
1666.9104,567.64,-7.96665
1666.9932,567.74,-7.96763
1667.0766,567.84,-7.96853
1667.1594,567.94,-7.96965
1667.2422,568.04,-7.97099
1667.3244,568.14,-7.97236
1667.4066,568.24,-7.97354
1667.4894,568.34,-7.97428
1667.5716,568.44,-7.97433
1667.6544,568.54,-7.97363
1667.7366,568.64,-7.97216
1667.8188,568.74,-7.97015
1667.901,568.84,-7.96808
1667.9838,568.94,-7.96643
1668.0666,569.04,-7.96562
1668.1494,569.14,-7.96598
1668.2322,569.24,-7.96712
1668.3144,569.34,-7.96807
1668.3972,569.44,-7.96834
1668.4794,569.54,-7.96863
1668.5622,569.64,-7.96969
1668.6444,569.74,-7.97127
1668.7272,569.84,-7.97262
1668.8094,569.94,-7.97337
1668.8916,570.04,-7.97379
1668.9744,570.14,-7.97417
1669.0572,570.24,-7.97476
1669.1394,570.34,-7.97577
1669.2222,570.44,-7.97732
1669.305,570.54,-7.97949
1669.3872,570.64,-7.98219
1669.4694,570.74,-7.98497
1669.5522,570.84,-7.98731
1669.6344,570.94,-7.98912
1669.7166,571.04,-7.99061
1669.7988,571.14,-7.99203
1669.8816,571.24,-7.99376
1669.9638,571.34,-7.99608
1670.0466,571.44,-7.99875
1670.1288,571.54,-8.0013
1670.211,571.64,-8.00341
1670.2938,571.74,-8.00507
1670.376,571.84,-8.00633
1670.4582,571.94,-8.00745
1670.541,572.04,-8.00875
1670.6232,572.14,-8.01012
1670.706,572.24,-8.01106
1670.7882,572.34,-8.01132
1670.871,572.44,-8.01144
1670.9532,572.54,-8.01211
1671.036,572.64,-8.01321
1671.1182,572.74,-8.01412
1671.201,572.84,-8.01446
1671.2832,572.94,-8.01438
1671.3654,573.04,-8.01416
1671.4482,573.14,-8.01441
1671.5304,573.24,-8.01586
1671.612,573.34,-8.01846
1671.6942,573.44,-8.02103
1671.7764,573.54,-8.02256
1671.8592,573.64,-8.02338
1671.9414,573.74,-8.02422
1672.0242,573.84,-8.02528
1672.107,573.94,-8.02629
1672.1898,574.04,-8.02712
1672.2726,574.14,-8.02827
1672.3548,574.24,-8.03026
1672.437,574.34,-8.03295
1672.5198,574.44,-8.03575
1672.602,574.54,-8.03818
1672.6848,574.64,-8.04006
1672.767,574.74,-8.0413
1672.8492,574.84,-8.04239
1672.9314,574.94,-8.04409
1673.0142,575.04,-8.04654
1673.0964,575.14,-8.04915
1673.1786,575.24,-8.05134
1673.2608,575.34,-8.05303
1673.343,575.44,-8.05425
1673.4252,575.54,-8.05525
1673.508,575.64,-8.05644
1673.5902,575.74,-8.05805
1673.6724,575.84,-8.05978
1673.7546,575.94,-8.06128
1673.8368,576.04,-8.06276
1673.919,576.14,-8.06485
1674.0012,576.24,-8.06771
1674.0834,576.34,-8.07057
1674.1656,576.44,-8.07271
1674.2478,576.54,-8.07429
1674.3306,576.64,-8.07588
1674.4122,576.74,-8.0777
1674.4944,576.84,-8.07944
1674.5766,576.94,-8.0809
1674.6588,577.04,-8.08245
1674.7404,577.14,-8.08461
1674.8226,577.24,-8.08703
1674.9048,577.34,-8.08847
1674.987,577.44,-8.08817
1675.0692,577.54,-8.08722
1675.1514,577.64,-8.08701
1675.2342,577.74,-8.08762
1675.3164,577.84,-8.08821
1675.3992,577.94,-8.08833
1675.4814,578.04,-8.08841
1675.5636,578.14,-8.08894
1675.6458,578.24,-8.08971
1675.728,578.34,-8.09022
1675.8102,578.44,-8.09032
1675.8924,578.54,-8.09039
1675.9746,578.64,-8.09084
1676.0568,578.74,-8.09181
1676.1384,578.84,-8.09337
1676.2206,578.94,-8.09526
1676.3028,579.04,-8.09681
1676.3844,579.14,-8.09765
1676.4666,579.24,-8.09842
1676.5488,579.34,-8.09995
1676.631,579.44,-8.10213
1676.7132,579.54,-8.10416
1676.796,579.64,-8.10552
1676.8782,579.74,-8.10659
1676.9604,579.84,-8.1078
1677.042,579.94,-8.10908
1677.1242,580.04,-8.11007
1677.2058,580.14,-8.11059
1677.288,580.24,-8.1107
1677.3696,580.34,-8.11057
1677.4518,580.44,-8.11056
1677.534,580.54,-8.11116
1677.6156,580.64,-8.11247
1677.6972,580.74,-8.11418
1677.7794,580.84,-8.11596
1677.861,580.94,-8.11769
1677.9426,581.04,-8.11928
1678.0236,581.14,-8.12075
1678.1052,581.24,-8.12224
1678.1874,581.34,-8.12383
1678.2696,581.44,-8.12554
1678.3518,581.54,-8.12735
1678.434,581.64,-8.1292
1678.5162,581.74,-8.13103
1678.5978,581.84,-8.1327
1678.6794,581.94,-8.13391
1678.7616,582.04,-8.13445
1678.8432,582.14,-8.13484
1678.9254,582.24,-8.13601
1679.0076,582.34,-8.13816
1679.0892,582.44,-8.14032
1679.1714,582.54,-8.14161
1679.253,582.64,-8.14232
1679.3352,582.74,-8.14313
1679.4168,582.84,-8.14426
1679.499,582.94,-8.14532
1679.5812,583.04,-8.14606
1679.6634,583.14,-8.14679
1679.7456,583.24,-8.14795
1679.8278,583.34,-8.14936
1679.91,583.44,-8.15034
1679.9916,583.54,-8.15053
1680.0738,583.64,-8.15052
1680.1554,583.74,-8.151
1680.2376,583.84,-8.15204
1680.3198,583.94,-8.15332
1680.4014,584.04,-8.15451
1680.4836,584.14,-8.15534
1680.5658,584.24,-8.15556
1680.648,584.34,-8.15547
1680.7302,584.44,-8.15557
1680.8118,584.54,-8.15604
1680.8934,584.64,-8.15658
1680.975,584.74,-8.15688
1681.0566,584.84,-8.15674
1681.1388,584.94,-8.15604
1681.221,585.04,-8.15511
1681.3032,585.14,-8.15476
1681.3854,585.24,-8.15553
1681.467,585.34,-8.15676
1681.5492,585.44,-8.15759
1681.6314,585.54,-8.15782
1681.7136,585.64,-8.1578
1681.7952,585.74,-8.15779
1681.8768,585.84,-8.15798
1681.9584,585.94,-8.15849
1682.0406,586.04,-8.15923
1682.1228,586.14,-8.15999
1682.2044,586.24,-8.16062
1682.286,586.34,-8.16112
1682.3676,586.44,-8.16149
1682.4498,586.54,-8.1618
1682.5314,586.64,-8.16216
1682.6136,586.74,-8.1626
1682.6958,586.84,-8.16311
1682.7774,586.94,-8.16366
1682.8596,587.04,-8.16435
1682.9412,587.14,-8.1653
1683.0234,587.24,-8.16646
1683.105,587.34,-8.16764
1683.1872,587.44,-8.16866
1683.2688,587.54,-8.16941
1683.3504,587.64,-8.16978
1683.4326,587.74,-8.16984
1683.5142,587.84,-8.16979
1683.5964,587.94,-8.16983
1683.678,588.04,-8.17018
1683.7596,588.14,-8.17098
1683.8418,588.24,-8.17206
1683.9234,588.34,-8.17302
1684.005,588.44,-8.17371
1684.0866,588.54,-8.17432
1684.1676,588.64,-8.17505
1684.2492,588.74,-8.17558
1684.3314,588.84,-8.17541
1684.4136,588.94,-8.17458
1684.4958,589.04,-8.17387
1684.5774,589.14,-8.17394
1684.659,589.24,-8.17458
1684.7406,589.34,-8.17533
1684.8228,589.44,-8.17601
1684.905,589.54,-8.17667
1684.9866,589.64,-8.17732
1685.0682,589.74,-8.17773
1685.1504,589.84,-8.17767
1685.232,589.94,-8.17723
1685.3136,590.04,-8.17676
1685.3952,590.14,-8.17652
1685.4768,590.24,-8.17658
1685.559,590.34,-8.17698
1685.6406,590.44,-8.17766
1685.7228,590.54,-8.17849
1685.805,590.64,-8.17931
1685.8872,590.74,-8.17984
1685.9688,590.84,-8.17987
1686.051,590.94,-8.17971
1686.1326,591.04,-8.17985
1686.2148,591.14,-8.18023
1686.297,591.24,-8.18008
1686.3792,591.34,-8.17889
1686.4608,591.44,-8.17747
1686.543,591.54,-8.17692
1686.6246,591.64,-8.1773
1686.7068,591.74,-8.17763
1686.7884,591.84,-8.17727
1686.8706,591.94,-8.17674
1686.9528,592.04,-8.17671
1687.0344,592.14,-8.17715
1687.116,592.24,-8.1775
1687.1976,592.34,-8.17747
1687.2792,592.44,-8.17732
1687.3608,592.54,-8.17738
1687.4424,592.64,-8.17758
1687.524,592.74,-8.17765
1687.6056,592.84,-8.17745
1687.6872,592.94,-8.17703
1687.7688,593.04,-8.17644
1687.8504,593.14,-8.17572
1687.932,593.24,-8.17494
1688.0136,593.34,-8.17402
1688.0952,593.44,-8.17276
1688.1768,593.54,-8.17103
1688.2584,593.64,-8.16928
1688.34,593.74,-8.16807
1688.421,593.84,-8.16749
1688.5026,593.94,-8.16712
1688.5842,594.04,-8.16667
1688.6652,594.14,-8.16639
1688.7468,594.24,-8.16658
1688.8284,594.34,-8.16681
1688.91,594.44,-8.16603
1688.991,594.54,-8.16385
1689.0726,594.64,-8.16172
1689.1542,594.74,-8.16123
1689.2358,594.84,-8.16202
1689.3168,594.94,-8.16245
1689.3984,595.04,-8.16176
1689.48,595.14,-8.16117
1689.561,595.24,-8.16193
1689.642,595.34,-8.16353
1689.7236,595.44,-8.16458
1689.8058,595.54,-8.16436
1689.8874,595.64,-8.16337
1689.969,595.74,-8.16218
1690.0506,595.84,-8.16102
1690.1322,595.94,-8.15999
1690.2138,596.04,-8.15909
1690.2954,596.14,-8.15815
1690.377,596.24,-8.15704
1690.4586,596.34,-8.15587
1690.5408,596.44,-8.15483
1690.6224,596.54,-8.15403
1690.704,596.64,-8.1535
1690.7856,596.74,-8.15323
1690.8678,596.84,-8.15298
1690.9494,596.94,-8.1525
1691.0304,597.04,-8.15167
1691.1126,597.14,-8.15053
1691.1942,597.24,-8.14915
1691.2764,597.34,-8.14778
1691.358,597.44,-8.14665
1691.4396,597.54,-8.14574
1691.5212,597.64,-8.1449
1691.6034,597.74,-8.14404
1691.685,597.84,-8.14321
1691.7672,597.94,-8.14244
1691.8488,598.04,-8.14153
1691.9304,598.14,-8.1402
1692.012,598.24,-8.13851
1692.0936,598.34,-8.13698
1692.1758,598.44,-8.13601
1692.2574,598.54,-8.13541
1692.339,598.64,-8.1348
1692.4206,598.74,-8.13409
1692.5022,598.84,-8.13352
1692.5832,598.94,-8.1332
1692.6648,599.04,-8.13259
1692.7464,599.14,-8.13106
1692.828,599.24,-8.12885
1692.9102,599.34,-8.12691
1692.9918,599.44,-8.12584
1693.0734,599.54,-8.1251
1693.155,599.64,-8.12405
1693.2366,599.74,-8.1227
1693.3182,599.84,-8.12153
1693.3998,599.94,-8.12072
1693.4814,600.04,-8.11991
1693.5636,600.14,-8.11873
1693.6452,600.24,-8.11738
1693.7268,600.34,-8.1163
1693.8078,600.44,-8.11565
1693.8894,600.54,-8.11517
1693.971,600.64,-8.11452
1694.0526,600.74,-8.11343
1694.1342,600.84,-8.11161
1694.2158,600.94,-8.10918
1694.2974,601.04,-8.10677
1694.379,601.14,-8.10483
1694.4606,601.24,-8.10315
1694.5416,601.34,-8.10135
1694.6238,601.44,-8.09942
1694.7054,601.54,-8.09775
1694.787,601.64,-8.0965
1694.8686,601.74,-8.09516
1694.9502,601.84,-8.09315
1695.0312,601.94,-8.09065
1695.1128,602.04,-8.0884
1695.1944,602.14,-8.08685
1695.276,602.24,-8.08551
1695.3576,602.34,-8.08386
1695.4392,602.44,-8.08196
1695.5202,602.54,-8.08024
1695.6018,602.64,-8.07884
1695.6828,602.74,-8.07739
1695.7644,602.84,-8.07552
1695.846,602.94,-8.07339
1695.927,603.04,-8.07141
1696.0086,603.14,-8.06978
1696.0902,603.24,-8.06831
1696.1712,603.34,-8.06682
1696.2528,603.44,-8.06532
1696.3344,603.54,-8.06391
1696.4154,603.64,-8.06243
1696.497,603.74,-8.06042
1696.5786,603.84,-8.05756
1696.6602,603.94,-8.0544
1696.7418,604.04,-8.05162
1696.8228,604.14,-8.04941
1696.9044,604.24,-8.04738
1696.986,604.34,-8.04521
1697.0676,604.44,-8.04288
1697.1492,604.54,-8.04042
1697.2308,604.64,-8.03806
1697.3118,604.74,-8.03616
1697.3934,604.84,-8.0348
1697.475,604.94,-8.03332
1697.5566,605.04,-8.03105
1697.6382,605.14,-8.02836
1697.7204,605.24,-8.02628
1697.802,605.34,-8.02528
1697.8836,605.44,-8.02467
1697.9658,605.54,-8.02374
1698.0474,605.64,-8.02224
1698.129,605.74,-8.02018
1698.2106,605.84,-8.01771
1698.2922,605.94,-8.0153
1698.3738,606.04,-8.01332
1698.4554,606.14,-8.0116
1698.537,606.24,-8.00985
1698.6186,606.34,-8.00796
1698.7002,606.44,-8.00613
1698.7818,606.54,-8.00448
1698.8628,606.64,-8.0028
1698.9444,606.74,-8.00084
1699.026,606.84,-7.99851
1699.1076,606.94,-7.99585
1699.1892,607.04,-7.99301
1699.2702,607.14,-7.99038
1699.3518,607.24,-7.98836
1699.434,607.34,-7.98675
1699.5156,607.44,-7.98494
1699.5972,607.54,-7.98265
1699.6788,607.64,-7.98031
1699.7604,607.74,-7.97843
1699.842,607.84,-7.97691
1699.9236,607.94,-7.97535
1700.0046,608.04,-7.97344
1700.0862,608.14,-7.97106
1700.1678,608.24,-7.96816
1700.2494,608.34,-7.9651
1700.3316,608.44,-7.9624
1700.4126,608.54,-7.96013
1700.4942,608.64,-7.95777
1700.5758,608.74,-7.95483
1700.6574,608.84,-7.95132
1700.739,608.94,-7.94742
1700.8212,609.04,-7.94345
1700.9028,609.14,-7.93996
1700.9844,609.24,-7.9373
1701.0654,609.34,-7.93514
1701.147,609.44,-7.93301
1701.2286,609.54,-7.93059
1701.3102,609.64,-7.92775
1701.3924,609.74,-7.92443
1701.4746,609.84,-7.92094
1701.5562,609.94,-7.9176
1701.6372,610.04,-7.91433
1701.7188,610.14,-7.91082
1701.8004,610.24,-7.90701
1701.882,610.34,-7.90335
1701.9636,610.44,-7.9003
1702.0452,610.54,-7.8976
1702.1268,610.64,-7.89468
1702.209,610.74,-7.89134
1702.2906,610.84,-7.8879
1702.3716,610.94,-7.88465
1702.4532,611.04,-7.88134
1702.5348,611.14,-7.87756
1702.6164,611.24,-7.87328
1702.6986,611.34,-7.86892
1702.7796,611.44,-7.86488
1702.8612,611.54,-7.86133
1702.9428,611.64,-7.85831
1703.0238,611.74,-7.85553
1703.1054,611.84,-7.85237
1703.187,611.94,-7.84841
1703.2686,612.04,-7.84396
1703.3502,612.14,-7.83945
1703.4318,612.24,-7.83522
1703.5134,612.34,-7.83152
1703.595,612.44,-7.82832
1703.6766,612.54,-7.82498
1703.7582,612.64,-7.82084
1703.8398,612.74,-7.81601
1703.9214,612.84,-7.81106
1704.003,612.94,-7.80637
1704.084,613.04,-7.80199
1704.1656,613.14,-7.7979
1704.2472,613.24,-7.79412
1704.3288,613.34,-7.79066
1704.4104,613.44,-7.78733
1704.492,613.54,-7.78366
1704.573,613.64,-7.77927
1704.6546,613.74,-7.77445
1704.7362,613.84,-7.76973
1704.8178,613.94,-7.76533
1704.8988,614.04,-7.76115
1704.9804,614.14,-7.75705
1705.0626,614.24,-7.75289
1705.1442,614.34,-7.74854
1705.2252,614.44,-7.74398
1705.3068,614.54,-7.73929
1705.3884,614.64,-7.73458
1705.47,614.74,-7.73006
1705.5516,614.84,-7.72594
1705.6332,614.94,-7.72198
1705.7154,615.04,-7.71769
1705.7964,615.14,-7.71273
1705.878,615.24,-7.70724
1705.9596,615.34,-7.70145
1706.0412,615.44,-7.69578
1706.1222,615.54,-7.69075
1706.2038,615.64,-7.68649
1706.2854,615.74,-7.68238
1706.367,615.84,-7.67781
1706.448,615.94,-7.6729
1706.5296,616.04,-7.66806
1706.6106,616.14,-7.66345
1706.6922,616.24,-7.65894
1706.7738,616.34,-7.65439
1706.8554,616.44,-7.64977
1706.937,616.54,-7.64509
1707.018,616.64,-7.64034
1707.0996,616.74,-7.63545
1707.1812,616.84,-7.63035
1707.2628,616.94,-7.62494
1707.3444,617.04,-7.6191
1707.426,617.14,-7.61287
1707.5076,617.24,-7.60643
1707.5892,617.34,-7.59995
1707.6708,617.44,-7.5935
1707.7524,617.54,-7.58713
1707.8334,617.64,-7.58087
1707.915,617.74,-7.57477
1707.9966,617.84,-7.56878
1708.0776,617.94,-7.56278
1708.1592,618.04,-7.55665
1708.2402,618.14,-7.55048
1708.3218,618.24,-7.54446
1708.4034,618.34,-7.53865
1708.485,618.44,-7.53287
1708.5666,618.54,-7.52694
1708.6482,618.64,-7.52096
1708.7298,618.74,-7.51512
1708.8114,618.84,-7.50941
1708.8924,618.94,-7.50353
1708.974,619.04,-7.49722
1709.0556,619.14,-7.49076
1709.1372,619.24,-7.4846
1709.2188,619.34,-7.4787
1709.3004,619.44,-7.47253
1709.3826,619.54,-7.46576
1709.4642,619.64,-7.4588
1709.5458,619.74,-7.45226
1709.628,619.84,-7.44634
1709.7096,619.94,-7.44091
1709.7912,620.04,-7.43571
1709.8728,620.14,-7.43013
1709.9544,620.24,-7.42356
1710.036,620.34,-7.41627
1710.1176,620.44,-7.40906
1710.1998,620.54,-7.40245
1710.2814,620.64,-7.39627
1710.363,620.74,-7.39026
1710.4446,620.84,-7.38414
1710.5262,620.94,-7.37759
1710.609,621.04,-7.37062
1710.6912,621.14,-7.36374
1710.7728,621.24,-7.3574
1710.8544,621.34,-7.35141
1710.936,621.44,-7.34537
1711.0182,621.54,-7.33907
1711.0998,621.64,-7.33251
1711.1814,621.74,-7.32568
1711.2636,621.84,-7.31861
1711.3458,621.94,-7.31131
1711.4274,622.04,-7.3038
1711.5096,622.14,-7.29611
1711.5912,622.24,-7.28833
1711.6728,622.34,-7.28065
1711.7544,622.44,-7.27327
1711.836,622.54,-7.26618
1711.9176,622.64,-7.25918
1711.9998,622.74,-7.25209
1712.0808,622.84,-7.24472
1712.1624,622.94,-7.23687
1712.244,623.04,-7.22867
1712.3256,623.14,-7.22032
1712.4072,623.24,-7.21215
1712.4894,623.34,-7.20459
1712.571,623.44,-7.19793
1712.6526,623.54,-7.19147
1712.7342,623.64,-7.18421
1712.8158,623.74,-7.17592
1712.8974,623.84,-7.16742
1712.9796,623.94,-7.15939
1713.0612,624.04,-7.15174
1713.1428,624.14,-7.14419
1713.2238,624.24,-7.13656
1713.3048,624.34,-7.12875
1713.3864,624.44,-7.12076
1713.4686,624.54,-7.11287
1713.5502,624.64,-7.10541
1713.6324,624.74,-7.09817
1713.714,624.84,-7.09062
1713.7956,624.94,-7.08251
1713.8772,625.04,-7.07437
1713.9588,625.14,-7.06675
1714.0404,625.24,-7.05953
1714.1226,625.34,-7.05219
1714.2042,625.44,-7.04434
1714.2864,625.54,-7.03587
1714.3686,625.64,-7.02677
1714.4502,625.74,-7.01776
1714.5318,625.84,-7.00979
1714.614,625.94,-7.00286
1714.6956,626.04,-6.99562
1714.7778,626.14,-6.98707
1714.86,626.24,-6.9781
1714.9416,626.34,-6.97014
1715.0232,626.44,-6.96317
1715.1054,626.54,-6.95585
1715.187,626.64,-6.94722
1715.2692,626.74,-6.93784
1715.3514,626.84,-6.92851
1715.433,626.94,-6.91949
1715.5146,627.04,-6.91066
1715.5968,627.14,-6.90189
1715.679,627.24,-6.89307
1715.7606,627.34,-6.88413
1715.8428,627.44,-6.87499
1715.925,627.54,-6.86559
1716.0066,627.64,-6.85608
1716.0888,627.74,-6.84702
1716.1704,627.84,-6.83879
1716.252,627.94,-6.83074
1716.3336,628.04,-6.82183
1716.4158,628.14,-6.81185
1716.498,628.24,-6.80163
1716.5796,628.34,-6.79194
1716.6618,628.44,-6.78287
1716.7434,628.54,-6.77437
1716.825,628.64,-6.76617
1716.9066,628.74,-6.75788
1716.9882,628.84,-6.74915
1717.0698,628.94,-6.73998
1717.1514,629.04,-6.7304
1717.2336,629.14,-6.72051
1717.3158,629.24,-6.71047
1717.398,629.34,-6.70042
1717.4802,629.44,-6.69039
1717.5618,629.54,-6.68036
1717.6434,629.64,-6.67014
1717.725,629.74,-6.65944
1717.8066,629.84,-6.64834
1717.8882,629.94,-6.63757
1717.9698,630.04,-6.62775
1718.052,630.14,-6.61854
1718.1342,630.24,-6.60924
1718.2158,630.34,-6.59958
1718.298,630.44,-6.5899
1718.3802,630.54,-6.58043
1718.4618,630.64,-6.57089
1718.544,630.74,-6.5609
1718.6256,630.84,-6.55059
1718.7072,630.94,-6.54058
1718.7894,631.04,-6.53123
1718.871,631.14,-6.52206
1718.9532,631.24,-6.51247
1719.0354,631.34,-6.5022
1719.117,631.44,-6.49124
1719.1992,631.54,-6.47977
1719.2808,631.64,-6.46848
1719.363,631.74,-6.45797
1719.4452,631.84,-6.44789
1719.5268,631.94,-6.43747
1719.6096,632.04,-6.42637
1719.6918,632.14,-6.41507
1719.7734,632.24,-6.40399
1719.855,632.34,-6.39297
1719.9366,632.44,-6.38167
1720.0188,632.54,-6.37008
1720.1004,632.64,-6.35853
1720.1826,632.74,-6.3473
1720.2654,632.84,-6.33634
1720.347,632.94,-6.32553
1720.4292,633.04,-6.31469
1720.5114,633.14,-6.30362
1720.5936,633.24,-6.29224
1720.6752,633.34,-6.28085
1720.7574,633.44,-6.26975
1720.839,633.54,-6.25893
1720.9206,633.64,-6.24814
1721.0022,633.74,-6.23726
1721.0844,633.84,-6.22633
1721.166,633.94,-6.21544
1721.2476,634.04,-6.20455
1721.3292,634.14,-6.19361
1721.4108,634.24,-6.18255
1721.4924,634.34,-6.17137
1721.5746,634.44,-6.16002
1721.6568,634.54,-6.1485
1721.739,634.64,-6.13675
1721.8212,634.74,-6.12476
1721.9034,634.84,-6.11248
1721.9856,634.94,-6.1
1722.0678,635.04,-6.08773
1722.1494,635.14,-6.07616
1722.2316,635.24,-6.0654
1722.3132,635.34,-6.05526
1722.3954,635.44,-6.04544
1722.4776,635.54,-6.03531
1722.5592,635.64,-6.02429
1722.6414,635.74,-6.01255
1722.723,635.84,-6.00069
1722.8052,635.94,-5.98905
1722.8874,636.04,-5.9776
1722.9696,636.14,-5.96628
1723.0512,636.24,-5.9553
1723.1334,636.34,-5.945
1723.2156,636.44,-5.93524
1723.2978,636.54,-5.92535
1723.38,636.64,-5.91473
1723.4622,636.74,-5.90355
1723.5444,636.84,-5.89213
1723.6266,636.94,-5.88061
1723.7088,637.04,-5.86895
1723.791,637.14,-5.85719
1723.8738,637.24,-5.84545
1723.9566,637.34,-5.83391
1724.0388,637.44,-5.82271
1724.121,637.54,-5.81198
1724.2032,637.64,-5.80166
1724.2848,637.74,-5.79121
1724.367,637.84,-5.78021
1724.4492,637.94,-5.76896
1724.5314,638.04,-5.7581
1724.6136,638.14,-5.74768
1724.6958,638.24,-5.73693
1724.7786,638.34,-5.72524
1724.8608,638.44,-5.71297
1724.943,638.54,-5.70075
1725.0252,638.64,-5.68897
1725.108,638.74,-5.67786
1725.1902,638.84,-5.66738
1725.2724,638.94,-5.65682
1725.3546,639.04,-5.64542
1725.4368,639.14,-5.63334
1725.519,639.24,-5.62136
1725.6012,639.34,-5.60994
1725.684,639.44,-5.59881
1725.7662,639.54,-5.58765
1725.8484,639.64,-5.57642
1725.9312,639.74,-5.56515
1726.0134,639.84,-5.55377
1726.0962,639.94,-5.54203
1726.1784,640.04,-5.5298
1726.2606,640.14,-5.51764
1726.3428,640.24,-5.50626
1726.425,640.34,-5.49563
1726.5072,640.44,-5.48501
1726.5894,640.54,-5.47395
1726.6722,640.64,-5.46291
1726.7544,640.74,-5.45244
1726.8372,640.84,-5.44228
1726.9194,640.94,-5.43161
1727.0022,641.04,-5.42001
1727.0844,641.14,-5.40791
1727.1666,641.24,-5.3958
1727.2488,641.34,-5.38382
1727.331,641.44,-5.37201
1727.4132,641.54,-5.36043
1727.496,641.64,-5.34921
1727.5782,641.74,-5.33844
1727.661,641.84,-5.32785
1727.7432,641.94,-5.31711
1727.8254,642.04,-5.30598
1727.9082,642.14,-5.29426
1727.9904,642.24,-5.28187
1728.0732,642.34,-5.26893
1728.156,642.44,-5.25562
1728.2382,642.54,-5.24248
1728.321,642.64,-5.23026
1728.4032,642.74,-5.21924
1728.4854,642.84,-5.20881
1728.5676,642.94,-5.19834
1728.6498,643.04,-5.18774
1728.7326,643.14,-5.17712
1728.8148,643.24,-5.16651
1728.8976,643.34,-5.15587
1728.981,643.44,-5.14514
1729.0638,643.54,-5.13434
1729.1466,643.64,-5.12351
1729.2288,643.74,-5.11275
1729.311,643.84,-5.10219
1729.3938,643.94,-5.09193
1729.4766,644.04,-5.08195
1729.5594,644.14,-5.07221
1729.6422,644.24,-5.06236
1729.725,644.34,-5.05188
1729.8072,644.44,-5.04077
1729.8894,644.54,-5.02985
1729.9722,644.64,-5.01985
1730.055,644.74,-5.01027
1730.1378,644.84,-5.00026
1730.2206,644.94,-4.98968
1730.3034,645.04,-4.97928
1730.3856,645.14,-4.96954
1730.4684,645.24,-4.95993
1730.5512,645.34,-4.94974
1730.634,645.44,-4.93897
1730.7162,645.54,-4.92814
1730.799,645.64,-4.91754
1730.8818,645.74,-4.9069
1730.964,645.84,-4.8959
1731.0462,645.94,-4.88474
1731.129,646.04,-4.8738
1731.2118,646.14,-4.86331
1731.2946,646.24,-4.85318
1731.3774,646.34,-4.84331
1731.4596,646.44,-4.83335
1731.5424,646.54,-4.82297
1731.6246,646.64,-4.81222
1731.7074,646.74,-4.80158
1731.7902,646.84,-4.79138
1731.873,646.94,-4.78132
1731.9558,647.04,-4.77104
1732.038,647.14,-4.76039
1732.1202,647.24,-4.74938
1732.203,647.34,-4.73803
1732.2858,647.44,-4.72643
1732.368,647.54,-4.71467
1732.4508,647.64,-4.703
1732.5336,647.74,-4.69171
1732.6164,647.84,-4.68096
1732.6992,647.94,-4.67072
1732.782,648.04,-4.66093
1732.8648,648.14,-4.65129
1732.9476,648.24,-4.64148
1733.0304,648.34,-4.6312
1733.1132,648.44,-4.62027
1733.196,648.54,-4.60875
1733.2794,648.64,-4.59748
1733.3622,648.74,-4.58729
1733.445,648.84,-4.57786
1733.5278,648.94,-4.56832
1733.6112,649.04,-4.55836
1733.694,649.14,-4.5485
1733.7768,649.24,-4.53921
1733.8596,649.34,-4.53027
1733.9424,649.44,-4.52127
1734.0258,649.54,-4.51213
1734.1086,649.64,-4.50313
1734.1914,649.74,-4.49444
1734.2742,649.84,-4.48579
1734.3564,649.94,-4.47693
1734.4392,650.04,-4.46818
1734.522,650.14,-4.46018
1734.6054,650.24,-4.45304
1734.6882,650.34,-4.44579
1734.771,650.44,-4.43755
1734.8538,650.54,-4.42863
1734.9366,650.64,-4.41975
1735.02,650.74,-4.41132
1735.1034,650.84,-4.40336
1735.1862,650.94,-4.39578
1735.2684,651.04,-4.38808
1735.3518,651.14,-4.37977
1735.4346,651.24,-4.371
1735.518,651.34,-4.36241
1735.6014,651.44,-4.35428
1735.6848,651.54,-4.34606
1735.7676,651.64,-4.33725
1735.8504,651.74,-4.32813
1735.9332,651.84,-4.31935
1736.016,651.94,-4.31112
1736.0988,652.04,-4.30315
1736.1822,652.14,-4.29513
1736.265,652.24,-4.28686
1736.3478,652.34,-4.27818
1736.4312,652.44,-4.26917
1736.514,652.54,-4.26007
1736.5968,652.64,-4.25104
1736.6796,652.74,-4.24203
1736.763,652.84,-4.23297
1736.8464,652.94,-4.22382
1736.9292,653.04,-4.21459
1737.0126,653.14,-4.20544
1737.096,653.24,-4.19683
1737.1794,653.34,-4.18904
1737.2622,653.44,-4.1814
1737.3456,653.54,-4.173
1737.429,653.64,-4.1639
1737.5124,653.74,-4.15496
1737.5958,653.84,-4.14662
1737.6786,653.94,-4.13819
1737.762,654.04,-4.12892
1737.8454,654.14,-4.11939
1737.9288,654.24,-4.11081
1738.0116,654.34,-4.10355
1738.0944,654.44,-4.09672
1738.1772,654.54,-4.08951
1738.2606,654.64,-4.08221
1738.3434,654.74,-4.07538
1738.4268,654.84,-4.06902
1738.5102,654.94,-4.06261
1738.5936,655.04,-4.05567
1738.677,655.14,-4.04801
1738.7604,655.24,-4.03955
1738.8432,655.34,-4.03068
1738.9272,655.44,-4.02207
1739.0106,655.54,-4.01412
1739.094,655.64,-4.00677
1739.1774,655.74,-3.99986
1739.2602,655.84,-3.99279
1739.3436,655.94,-3.98485
1739.427,656.04,-3.97584
1739.511,656.14,-3.96602
1739.5944,656.24,-3.95578
1739.6778,656.34,-3.94584
1739.7606,656.44,-3.93686
1739.844,656.54,-3.92861
1739.9274,656.64,-3.92037
1740.0102,656.74,-3.91178
1740.093,656.84,-3.90306
1740.1764,656.94,-3.89443
1740.2598,657.04,-3.88583
1740.3426,657.14,-3.87709
1740.426,657.24,-3.8682
1740.5094,657.34,-3.85928
1740.5934,657.44,-3.85055
1740.6762,657.54,-3.84246
1740.7596,657.64,-3.83539
1740.8424,657.74,-3.8289
1740.9258,657.84,-3.82205
1741.0092,657.94,-3.81437
1741.0926,658.04,-3.80618
1741.1754,658.14,-3.79782
1741.2588,658.24,-3.7894
1741.3416,658.34,-3.78096
1741.425,658.44,-3.77241
1741.5084,658.54,-3.7635
1741.5912,658.64,-3.75419
1741.6746,658.74,-3.74508
1741.758,658.84,-3.73678
1741.8414,658.94,-3.72889
1741.9248,659.04,-3.72042
1742.0076,659.14,-3.71114
1742.091,659.24,-3.70207
1742.1744,659.34,-3.69412
1742.2578,659.44,-3.6867
1742.3412,659.54,-3.67873
1742.424,659.64,-3.66999
1742.5074,659.74,-3.66115
1742.5908,659.84,-3.65273
1742.6748,659.94,-3.64461
1742.7582,660.04,-3.63658
1742.8416,660.14,-3.62857
1742.925,660.24,-3.62059
1743.0078,660.34,-3.6125
1743.0912,660.44,-3.60389
1743.1746,660.54,-3.59448
1743.258,660.64,-3.58482
1743.342,660.74,-3.57567
1743.4254,660.84,-3.56719
1743.5094,660.94,-3.55888
1743.5928,661.04,-3.55035
1743.6768,661.14,-3.54166
1743.7602,661.24,-3.53292
1743.8436,661.34,-3.52435
1743.9276,661.44,-3.51622
1744.0116,661.54,-3.50852
1744.0956,661.64,-3.50088
1744.179,661.74,-3.49298
1744.2624,661.84,-3.48486
1744.3458,661.94,-3.47672
1744.4292,662.04,-3.46878
1744.5132,662.14,-3.46135
1744.5972,662.24,-3.45446
1744.6812,662.34,-3.44738
1744.7646,662.44,-3.4394
1744.848,662.54,-3.43084
1744.9314,662.64,-3.42247
1745.0154,662.74,-3.4145
1745.0994,662.84,-3.40634
1745.1834,662.94,-3.3975
1745.2674,663.04,-3.38832
1745.3514,663.14,-3.37929
1745.4354,663.24,-3.37037
1745.5188,663.34,-3.36113
1745.6028,663.44,-3.35152
1745.6862,663.54,-3.3423
1745.7702,663.64,-3.33423
1745.8542,663.74,-3.32724
1745.9382,663.84,-3.32098
1746.0222,663.94,-3.31494
1746.1062,664.04,-3.30843
1746.1896,664.14,-3.30108
1746.273,664.24,-3.29355
1746.357,664.34,-3.28661
1746.441,664.44,-3.28014
1746.525,664.54,-3.27342
1746.6084,664.64,-3.26622
1746.6918,664.74,-3.25904
1746.7758,664.84,-3.25236
1746.8604,664.94,-3.24597
1746.9444,665.04,-3.23943
1747.0284,665.14,-3.23246
1747.1118,665.24,-3.22491
1747.1958,665.34,-3.21684
1747.2792,665.44,-3.20884
1747.3632,665.54,-3.2015
1747.4472,665.64,-3.19465
1747.5312,665.74,-3.18777
1747.6152,665.84,-3.18085
1747.6992,665.94,-3.17464
1747.7826,666.04,-3.16963
1747.8666,666.14,-3.16514
1747.95,666.24,-3.16021
1748.034,666.34,-3.1546
1748.118,666.44,-3.14866
1748.202,666.54,-3.14274
1748.286,666.64,-3.13725
1748.3694,666.74,-3.13249
1748.4534,666.84,-3.12822
1748.5374,666.94,-3.12397
1748.6208,667.04,-3.11957
1748.7048,667.14,-3.1151
1748.7894,667.24,-3.11059
1748.8734,667.34,-3.10568
1748.958,667.44,-3.10002
1749.042,667.54,-3.09392
1749.126,667.64,-3.08814
1749.2106,667.74,-3.08288
1749.2946,667.84,-3.07745
1749.3786,667.94,-3.07132
1749.4626,668.04,-3.06515
1749.5466,668.14,-3.05993
1749.6312,668.24,-3.05547
1749.7152,668.34,-3.05059
1749.7998,668.44,-3.04465
1749.8838,668.54,-3.03831
1749.9684,668.64,-3.03232
1750.0524,668.74,-3.02677
1750.137,668.84,-3.02141
1750.2216,668.94,-3.01595
1750.3056,669.04,-3.00998
1750.3896,669.14,-3.00335
1750.4742,669.24,-2.99657
1750.5582,669.34,-2.99027
1750.6428,669.44,-2.98458
1750.7268,669.54,-2.97928
1750.8114,669.64,-2.97434
1750.896,669.74,-2.96998
1750.9806,669.84,-2.96633
1751.0652,669.94,-2.96307
1751.1492,670.04,-2.95975
1751.2332,670.14,-2.95631
1751.3178,670.24,-2.95294
1751.4024,670.34,-2.94983
1751.4864,670.44,-2.94708
1751.5704,670.54,-2.94477
1751.6544,670.64,-2.94297
1751.7384,670.74,-2.94172
1751.8224,670.84,-2.94083
1751.907,670.94,-2.93988
1751.9916,671.04,-2.93855
1752.0762,671.14,-2.93688
1752.1602,671.24,-2.93499
1752.2442,671.34,-2.93307
1752.3282,671.44,-2.93132
1752.4122,671.54,-2.92971
1752.4968,671.64,-2.9278
1752.5808,671.74,-2.9253
1752.6648,671.84,-2.92259
1752.7488,671.94,-2.92022
1752.8334,672.04,-2.91811
1752.9174,672.14,-2.91571
1753.002,672.24,-2.9128
1753.086,672.34,-2.90995
1753.17,672.44,-2.90769
1753.254,672.54,-2.90571
1753.338,672.64,-2.90336
1753.4226,672.74,-2.90063
1753.5066,672.84,-2.8982
1753.5906,672.94,-2.89647
1753.6752,673.04,-2.89477
1753.7598,673.14,-2.89232
1753.8444,673.24,-2.88932
1753.929,673.34,-2.88658
1754.0124,673.44,-2.88452
1754.0964,673.54,-2.88299
1754.181,673.64,-2.88179
1754.2662,673.74,-2.88065
1754.3508,673.84,-2.87933
1754.4348,673.94,-2.87793
1754.5194,674.04,-2.87686
1754.6034,674.14,-2.87627
1754.688,674.24,-2.87574
1754.7726,674.34,-2.87486
1754.8572,674.44,-2.87382
1754.9418,674.54,-2.873
1755.0264,674.64,-2.8725
1755.111,674.74,-2.87219
1755.1956,674.84,-2.87191
1755.2808,674.94,-2.87151
1755.3648,675.04,-2.87084
1755.4494,675.14,-2.86996
1755.534,675.24,-2.86897
1755.6186,675.34,-2.86793
1755.7038,675.44,-2.86679
1755.7884,675.54,-2.8656
1755.873,675.64,-2.86472
1755.9582,675.74,-2.86455
1756.0428,675.84,-2.8648
1756.128,675.94,-2.86476
1756.2126,676.04,-2.86421
1756.2966,676.14,-2.86369
1756.3812,676.24,-2.86365
1756.4664,676.34,-2.86387
1756.551,676.44,-2.86398
1756.6362,676.54,-2.86402
1756.7208,676.64,-2.86431
1756.8054,676.74,-2.86499
1756.8894,676.84,-2.86577
1756.9746,676.94,-2.86641
1757.0592,677.04,-2.86733
1757.1438,677.14,-2.86916
1757.2284,677.24,-2.87169
1757.3136,677.34,-2.87391
1757.3982,677.44,-2.87525
1757.4834,677.54,-2.87622
1757.5686,677.64,-2.87745
1757.6532,677.74,-2.87915
1757.7378,677.84,-2.88133
1757.823,677.94,-2.88378
1757.9076,678.04,-2.88609
1757.9928,678.14,-2.88795
1758.078,678.24,-2.88945
1758.1626,678.34,-2.89077
1758.2472,678.44,-2.89213
1758.3324,678.54,-2.89381
1758.4176,678.64,-2.89583
1758.5022,678.74,-2.89794
1758.5868,678.84,-2.89986
1758.672,678.94,-2.90138
1758.7566,679.04,-2.90235
1758.8418,679.14,-2.90316
1758.927,679.24,-2.90452
1759.0116,679.34,-2.90673
1759.0968,679.44,-2.90947
1759.182,679.54,-2.91235
1759.2672,679.64,-2.91506
1759.3518,679.74,-2.91732
1759.437,679.84,-2.91935
1759.5216,679.94,-2.92174
1759.6068,680.04,-2.92475
1759.6914,680.14,-2.92801
1759.7766,680.24,-2.93114
1759.8618,680.34,-2.93408
1759.947,680.44,-2.93684
1760.0322,680.54,-2.93954
1760.1174,680.64,-2.94235
1760.2026,680.74,-2.94522
1760.2872,680.84,-2.94763
1760.3724,680.94,-2.94921
1760.4576,681.04,-2.95072
1760.5422,681.14,-2.95333
1760.6274,681.24,-2.95713
1760.7126,681.34,-2.9611
1760.7978,681.44,-2.9646
1760.883,681.54,-2.96797
1760.9682,681.64,-2.97171
1761.0534,681.74,-2.97606
1761.138,681.84,-2.98117
1761.2226,681.94,-2.98671
1761.3078,682.04,-2.99182
1761.3924,682.14,-2.99606
1761.4776,682.24,-3.00029
1761.5634,682.34,-3.00549
1761.6486,682.44,-3.01143
1761.7338,682.54,-3.01727
1761.8184,682.64,-3.02272
1761.9036,682.74,-3.02819
1761.9894,682.84,-3.03402
1762.0752,682.94,-3.04
1762.1604,683.04,-3.04584
1762.2456,683.14,-3.05167
1762.3314,683.24,-3.05785
1762.4166,683.34,-3.0645
1762.5012,683.44,-3.07143
1762.5864,683.54,-3.07845
1762.6716,683.64,-3.08552
1762.7568,683.74,-3.09267
1762.842,683.84,-3.09997
1762.9278,683.94,-3.10755
1763.0136,684.04,-3.11544
1763.0988,684.14,-3.12355
1763.184,684.24,-3.13186
1763.2692,684.34,-3.14076
1763.3544,684.44,-3.15067
1763.4396,684.54,-3.16111
1763.5254,684.64,-3.17097
1763.6106,684.74,-3.18003
1763.6964,684.84,-3.18951
1763.7828,684.94,-3.20048
1763.8686,685.04,-3.21234
1763.9544,685.14,-3.22411
1764.0396,685.24,-3.23571
1764.1248,685.34,-3.24765
1764.21,685.44,-3.26026
1764.2958,685.54,-3.27353
1764.381,685.64,-3.28735
1764.4668,685.74,-3.30138
1764.5526,685.84,-3.31526
1764.6384,685.94,-3.32923
1764.7236,686.04,-3.34395
1764.8094,686.14,-3.35957
1764.8952,686.24,-3.3753
1764.981,686.34,-3.39048
1765.0668,686.44,-3.40556
1765.1526,686.54,-3.42123
1765.2384,686.64,-3.43719
1765.3242,686.74,-3.45241
1765.41,686.84,-3.46665
1765.4958,686.94,-3.48119
1765.5816,687.04,-3.49715
1765.6674,687.14,-3.51438
1765.7532,687.24,-3.53237
1765.839,687.34,-3.55086
1765.9248,687.44,-3.5697
1766.0106,687.54,-3.58887
1766.0958,687.64,-3.60852
1766.1816,687.74,-3.62871
1766.2668,687.84,-3.64912
1766.3526,687.94,-3.66935
1766.4384,688.04,-3.68946
1766.5242,688.14,-3.70984
1766.61,688.24,-3.73078
1766.6958,688.34,-3.75241
1766.7816,688.44,-3.77479
1766.8674,688.54,-3.79782
1766.9526,688.64,-3.82133
1767.0384,688.74,-3.84497
1767.1242,688.84,-3.86822
1767.21,688.94,-3.89097
1767.2952,689.04,-3.91378
1767.381,689.14,-3.93717
1767.4662,689.24,-3.96111
1767.552,689.34,-3.98546
1767.6378,689.44,-4.01024
1767.723,689.54,-4.03559
1767.8082,689.64,-4.06149
1767.894,689.74,-4.08758
1767.9792,689.84,-4.11348
1768.0644,689.94,-4.13892
1768.1502,690.04,-4.16365
1768.2354,690.14,-4.18787
1768.3212,690.24,-4.21207
1768.407,690.34,-4.23664
1768.4922,690.44,-4.26177
1768.5786,690.54,-4.28753
1768.6644,690.64,-4.31338
1768.7508,690.74,-4.33865
1768.8366,690.84,-4.36336
1768.9224,690.94,-4.38809
1769.007,691.04,-4.41319
1769.0922,691.14,-4.43851
1769.178,691.24,-4.46393
1769.2644,691.34,-4.48936
1769.3502,691.44,-4.51479
1769.4366,691.54,-4.54021
1769.5224,691.64,-4.56566
1769.6076,691.74,-4.59105
1769.6934,691.84,-4.61611
1769.7792,691.94,-4.64064
1769.865,692.04,-4.6652
1769.9508,692.14,-4.69052
1770.0366,692.24,-4.71621
1770.1224,692.34,-4.74107
1770.2088,692.44,-4.76451
1770.2946,692.54,-4.78724
1770.381,692.64,-4.81004
1770.4668,692.74,-4.83343
1770.5526,692.84,-4.85779
1770.6384,692.94,-4.8827
1770.7242,693.04,-4.90709
1770.81,693.14,-4.93056
1770.8964,693.24,-4.95386
1770.9822,693.34,-4.97768
1771.0686,693.44,-5.00202
1771.1544,693.54,-5.02668
1771.2402,693.64,-5.05135
1771.3254,693.74,-5.07564
1771.4112,693.84,-5.09938
1771.497,693.94,-5.12266
1771.5828,694.04,-5.14563
1771.6686,694.14,-5.16831
1771.755,694.24,-5.1907
1771.8408,694.34,-5.21296
1771.926,694.44,-5.23539
1772.0118,694.54,-5.25809
1772.0976,694.64,-5.28094
1772.1834,694.74,-5.30373
1772.2698,694.84,-5.32603
1772.3556,694.94,-5.34741
1772.442,695.04,-5.36823
1772.5278,695.14,-5.38939
1772.6142,695.24,-5.41132
1772.7,695.34,-5.43368
1772.7858,695.44,-5.45609
1772.8716,695.54,-5.47817
1772.958,695.64,-5.49962
1773.0438,695.74,-5.52072
1773.1302,695.84,-5.54209
1773.2166,695.94,-5.56388
1773.303,696.04,-5.58547
1773.3894,696.14,-5.60642
1773.4752,696.24,-5.62711
1773.561,696.34,-5.64804
1773.6462,696.44,-5.66924
1773.732,696.54,-5.6905
1773.8184,696.64,-5.71161
1773.9042,696.74,-5.73238
1773.9906,696.84,-5.75276
1774.077,696.94,-5.77305
1774.1634,697.04,-5.7936
1774.2498,697.14,-5.81445
1774.3356,697.24,-5.83546
1774.422,697.34,-5.85657
1774.5078,697.44,-5.87781
1774.5942,697.54,-5.89907
1774.6806,697.64,-5.91971
1774.767,697.74,-5.93916
1774.8528,697.84,-5.95817
1774.9392,697.94,-5.97803
1775.025,698.04,-5.99888
1775.1114,698.14,-6.01951
1775.1972,698.24,-6.03911
1775.2836,698.34,-6.05813
1775.3694,698.44,-6.07714
1775.4552,698.54,-6.09611
1775.541,698.64,-6.11477
1775.6268,698.74,-6.1331
1775.7132,698.84,-6.15137
1775.799,698.94,-6.16986
1775.8848,699.04,-6.18875
1775.9706,699.14,-6.20814
1776.057,699.24,-6.22783
1776.1428,699.34,-6.24747
1776.2292,699.44,-6.267
1776.3156,699.54,-6.28662
1776.402,699.64,-6.30644
1776.4884,699.74,-6.32627
1776.5748,699.84,-6.34585
1776.6612,699.94,-6.36497
1776.7476,700.04,-6.38348
1776.834,700.14,-6.40163
1776.9204,700.24,-6.42003
1777.0068,700.34,-6.43897
1777.0932,700.44,-6.45806
1777.1796,700.54,-6.47689
1777.266,700.64,-6.49538
1777.3518,700.74,-6.51361
1777.4382,700.84,-6.53183
1777.524,700.94,-6.55048
1777.6104,701.04,-6.56968
1777.6968,701.14,-6.589
1777.7832,701.24,-6.60804
1777.8696,701.34,-6.62664
1777.9554,701.44,-6.64479
1778.0418,701.54,-6.66274
1778.1288,701.64,-6.68101
1778.2158,701.74,-6.69964
1778.3028,701.84,-6.71802
1778.3892,701.94,-6.73569
1778.4756,702.04,-6.75299
1778.5626,702.14,-6.77041
1778.649,702.24,-6.78815
1778.7354,702.34,-6.80621
1778.8224,702.44,-6.82454
1778.9088,702.54,-6.84296
1778.9952,702.64,-6.86128
1779.0816,702.74,-6.87922
1779.168,702.84,-6.89651
1779.255,702.94,-6.91314
1779.3414,703.04,-6.92916
1779.4278,703.14,-6.94498
1779.5148,703.24,-6.96132
1779.6012,703.34,-6.97853
1779.6882,703.44,-6.99599
1779.7746,703.54,-7.01307
1779.8616,703.64,-7.02992
1779.9486,703.74,-7.04695
1780.035,703.84,-7.06423
1780.1214,703.94,-7.0815
1780.2078,704.04,-7.09868
1780.2948,704.14,-7.11606
1780.3818,704.24,-7.13384
1780.4682,704.34,-7.15171
1780.5552,704.44,-7.16923
1780.6422,704.54,-7.18629
1780.7286,704.64,-7.20302
1780.8156,704.74,-7.21957
1780.902,704.84,-7.23608
1780.9884,704.94,-7.25278
1781.0754,705.04,-7.27016
1781.1624,705.14,-7.28867
1781.2494,705.24,-7.30771
1781.3364,705.34,-7.32607
1781.4234,705.44,-7.3433
1781.5104,705.54,-7.35981
1781.5968,705.64,-7.37603
1781.6838,705.74,-7.39221
1781.7702,705.84,-7.4086
1781.8572,705.94,-7.42537
1781.9442,706.04,-7.44269
1782.0312,706.14,-7.46024
1782.1182,706.24,-7.4773
1782.2052,706.34,-7.49357
1782.2922,706.44,-7.50976
1782.3786,706.54,-7.52649
1782.465,706.64,-7.54324
1782.552,706.74,-7.55918
1782.6396,706.84,-7.57452
1782.7272,706.94,-7.59025
1782.8142,707.04,-7.60673
1782.9006,707.14,-7.62323
1782.9876,707.24,-7.63916
1783.0746,707.34,-7.65482
1783.1616,707.44,-7.67069
1783.2486,707.54,-7.68679
1783.3356,707.64,-7.70287
1783.4226,707.74,-7.71876
1783.509,707.84,-7.73434
1783.5966,707.94,-7.7495
1783.6836,708.04,-7.76414
1783.7706,708.14,-7.77825
1783.8576,708.24,-7.79243
1783.944,708.34,-7.80755
1784.031,708.44,-7.82346
1784.118,708.54,-7.83906
1784.2056,708.64,-7.85373
1784.2926,708.74,-7.86796
1784.3796,708.84,-7.88229
1784.4666,708.94,-7.89677
1784.553,709.04,-7.9113
1784.64,709.14,-7.9255
1784.727,709.24,-7.93881
1784.814,709.34,-7.95143
1784.9004,709.44,-7.96475
1784.9874,709.54,-7.97982
1785.0744,709.64,-7.99583
1785.1614,709.74,-8.01156
1785.2484,709.84,-8.02671
1785.3348,709.94,-8.04147
1785.4224,710.04,-8.05581
1785.5094,710.14,-8.06942
1785.5964,710.24,-8.08233
1785.6834,710.34,-8.0956
1785.7704,710.44,-8.11023
1785.8574,710.54,-8.1255
1785.945,710.64,-8.14004
1786.032,710.74,-8.15375
1786.119,710.84,-8.1678
1786.206,710.94,-8.18275
1786.293,711.04,-8.19773
1786.38,711.14,-8.21192
1786.467,711.24,-8.22547
1786.554,711.34,-8.23883
1786.641,711.44,-8.25213
1786.728,711.54,-8.26525
1786.815,711.64,-8.27823
1786.902,711.74,-8.29135
1786.9896,711.84,-8.30485
1787.0766,711.94,-8.31868
1787.1642,712.04,-8.33276
1787.2512,712.14,-8.34698
1787.3382,712.24,-8.36126
1787.4258,712.34,-8.37544
1787.5128,712.44,-8.38928
1787.6004,712.54,-8.40261
1787.688,712.64,-8.41551
1787.7756,712.74,-8.42807
1787.8632,712.84,-8.44027
1787.9508,712.94,-8.45203
1788.0384,713.04,-8.46374
1788.126,713.14,-8.4761
1788.2136,713.24,-8.48938
1788.3006,713.34,-8.50308
1788.3882,713.44,-8.51669
1788.4758,713.54,-8.52997
1788.5634,713.64,-8.54279
1788.6504,713.74,-8.55557
1788.738,713.84,-8.569
1788.8256,713.94,-8.58305
1788.9132,714.04,-8.59678
1789.0002,714.14,-8.60963
1789.0878,714.24,-8.62218
1789.1754,714.34,-8.63499
1789.263,714.44,-8.64772
1789.3506,714.54,-8.65967
1789.4382,714.64,-8.67094
1789.5252,714.74,-8.68222
1789.6128,714.84,-8.69396
1789.7004,714.94,-8.70615
1789.788,715.04,-8.71862
1789.8756,715.14,-8.73074
1789.9638,715.24,-8.74192
1790.0514,715.34,-8.75278
1790.139,715.44,-8.76458
1790.2266,715.54,-8.77762
1790.3142,715.64,-8.7911
1790.4012,715.74,-8.80433
1790.4888,715.84,-8.81713
1790.5758,715.94,-8.82943
1790.6634,716.04,-8.84142
1790.7516,716.14,-8.85335
1790.8392,716.24,-8.86522
1790.9268,716.34,-8.87684
1791.0144,716.44,-8.88826
1791.102,716.54,-8.89992
1791.1896,716.64,-8.91219
1791.2772,716.74,-8.92498
1791.3648,716.84,-8.93806
1791.4524,716.94,-8.95088
1791.54,717.04,-8.96271
1791.6276,717.14,-8.97352
1791.7152,717.24,-8.98397
1791.8034,717.34,-8.99459
1791.891,717.44,-9.00539
1791.9792,717.54,-9.01634
1792.0668,717.64,-9.02749
1792.1544,717.74,-9.03888
1792.2426,717.84,-9.05014
1792.3302,717.94,-9.0606
1792.4184,718.04,-9.07034
1792.506,718.14,-9.08055
1792.5936,718.24,-9.09198
1792.6812,718.34,-9.1036
1792.7694,718.44,-9.11423
1792.857,718.54,-9.12415
1792.9452,718.64,-9.1343
1793.0334,718.74,-9.14495
1793.1216,718.84,-9.15573
1793.2092,718.94,-9.16632
1793.2968,719.04,-9.17643
1793.385,719.14,-9.18597
1793.4726,719.24,-9.19552
1793.5608,719.34,-9.20578
1793.649,719.44,-9.21657
1793.7372,719.54,-9.22719
1793.8254,719.64,-9.23738
1793.9136,719.74,-9.24741
1794.0018,719.84,-9.25746
1794.09,719.94,-9.26746
1794.1782,720.04,-9.27733
1794.2664,720.14,-9.28723
1794.3546,720.24,-9.29733
1794.4428,720.34,-9.30745
1794.531,720.44,-9.31715
1794.6192,720.54,-9.32631
1794.7074,720.64,-9.33532
1794.7956,720.74,-9.34445
1794.8832,720.84,-9.35358
1794.9714,720.94,-9.36254
1795.0596,721.04,-9.3714
1795.1478,721.14,-9.38034
1795.236,721.24,-9.3893
1795.3242,721.34,-9.39799
1795.4124,721.44,-9.40619
1795.5006,721.54,-9.4139
1795.5888,721.64,-9.4213
1795.6764,721.74,-9.42933
1795.7646,721.84,-9.43895
1795.8528,721.94,-9.44933
1795.9416,722.04,-9.45878
1796.0292,722.14,-9.46687
1796.1174,722.24,-9.4746
1796.2056,722.34,-9.48263
1796.2932,722.44,-9.49087
1796.3814,722.54,-9.49906
1796.4696,722.64,-9.50689
1796.5578,722.74,-9.51405
1796.6454,722.84,-9.52077
1796.7336,722.94,-9.52765
1796.8218,723.04,-9.53485
1796.9106,723.14,-9.542
1796.9988,723.24,-9.54887
1797.087,723.34,-9.55571
1797.1752,723.44,-9.56282
1797.2634,723.54,-9.57018
1797.3522,723.64,-9.57767
1797.4404,723.74,-9.58512
1797.5286,723.84,-9.59236
1797.6174,723.94,-9.59926
1797.7062,724.04,-9.60575
1797.7944,724.14,-9.61185
1797.8832,724.24,-9.61781
1797.9714,724.34,-9.62392
1798.0596,724.44,-9.63032
1798.1484,724.54,-9.63707
1798.2372,724.64,-9.64396
1798.3254,724.74,-9.65057
1798.4142,724.84,-9.65651
1798.5024,724.94,-9.66153
1798.5912,725.04,-9.66566
1798.6794,725.14,-9.67005
1798.7682,725.24,-9.67585
1798.857,725.34,-9.68251
1798.9452,725.44,-9.68869
1799.034,725.54,-9.69406
1799.1228,725.64,-9.6992
1799.2116,725.74,-9.70454
1799.3004,725.84,-9.71002
1799.3892,725.94,-9.71554
1799.478,726.04,-9.72106
1799.5668,726.14,-9.72652
1799.6562,726.24,-9.73169
1799.745,726.34,-9.73627
1799.8332,726.44,-9.74033
1799.922,726.54,-9.74429
1800.0108,726.64,-9.74852
1800.0996,726.74,-9.75311
1800.1884,726.84,-9.7581
1800.2766,726.94,-9.76312
1800.3654,727.04,-9.76781
1800.4542,727.14,-9.77213
1800.543,727.24,-9.77625
1800.6318,727.34,-9.78037
1800.7206,727.44,-9.78478
1800.8088,727.54,-9.7895
1800.897,727.64,-9.79407
1800.9864,727.74,-9.79812
1801.0752,727.84,-9.80187
1801.1646,727.94,-9.80566
1801.2534,728.04,-9.8092
1801.3428,728.14,-9.81187
1801.4316,728.24,-9.81411
1801.521,728.34,-9.81746
1801.6098,728.44,-9.82264
1801.6986,728.54,-9.8286
1801.7874,728.64,-9.83429
1801.8768,728.74,-9.83957
1801.9662,728.84,-9.84456
1802.055,728.94,-9.84932
1802.1438,729.04,-9.85393
1802.2326,729.14,-9.85843
1802.3214,729.24,-9.86277
1802.4108,729.34,-9.8669
1802.5002,729.44,-9.87072
1802.5896,729.54,-9.87424
1802.6784,729.64,-9.8779
1802.7678,729.74,-9.88213
1802.8572,729.84,-9.88667
1802.9466,729.94,-9.89088
1803.036,730.04,-9.89459
1803.1248,730.14,-9.8981
1803.2142,730.24,-9.90158
1803.3036,730.34,-9.90505
1803.393,730.44,-9.90848
1803.4824,730.54,-9.91186
1803.5712,730.64,-9.9152
1803.6606,730.74,-9.91867
1803.7494,730.84,-9.92249
1803.8388,730.94,-9.92656
1803.9276,731.04,-9.9305
1804.017,731.14,-9.93414
1804.1064,731.24,-9.93768
1804.1958,731.34,-9.94124
1804.2852,731.44,-9.94454
1804.3746,731.54,-9.94738
1804.464,731.64,-9.95031
1804.5528,731.74,-9.95412
1804.6422,731.84,-9.95858
1804.7316,731.94,-9.96264
1804.821,732.04,-9.96591
1804.9104,732.14,-9.96895
1804.9998,732.24,-9.97218
1805.0892,732.34,-9.97543
1805.1786,732.44,-9.97853
1805.268,732.54,-9.98195
1805.3574,732.64,-9.98631
1805.4468,732.74,-9.99118
1805.5362,732.84,-9.99546
1805.6256,732.94,-9.99882
1805.715,733.04,-10.00192
1805.8044,733.14,-10.00518
1805.8938,733.24,-10.0082
1805.9832,733.34,-10.01063
1806.0732,733.44,-10.01287
1806.1626,733.54,-10.01552
1806.2526,733.64,-10.01907
1806.342,733.74,-10.02383
1806.4314,733.84,-10.02939
1806.5208,733.94,-10.03443
1806.6102,734.04,-10.03823
1806.6996,734.14,-10.04126
1806.7896,734.24,-10.04411
1806.879,734.34,-10.0474
1806.9684,734.44,-10.05164
1807.0578,734.54,-10.05625
1807.1478,734.64,-10.06017
1807.2378,734.74,-10.06333
1807.3272,734.84,-10.06649
1807.4166,734.94,-10.07009
1807.506,735.04,-10.07386
1807.596,735.14,-10.07764
1807.6854,735.24,-10.0817
1807.7748,735.34,-10.08628
1807.8642,735.44,-10.09091
1807.9536,735.54,-10.09488
1808.043,735.64,-10.09848
1808.133,735.74,-10.10276
1808.223,735.84,-10.10781
1808.3124,735.94,-10.11242
1808.403,736.04,-10.1157
1808.493,736.14,-10.11806
1808.583,736.24,-10.12012
1808.673,736.34,-10.1226
1808.763,736.44,-10.12614
1808.853,736.54,-10.13062
1808.943,736.64,-10.13542
1809.033,736.74,-10.14003
1809.1236,736.84,-10.14407
1809.2136,736.94,-10.14754
1809.303,737.04,-10.15114
1809.393,737.14,-10.15534
1809.483,737.24,-10.15959
1809.573,737.34,-10.1632
1809.663,737.44,-10.16617
1809.7524,737.54,-10.16883
1809.8424,737.64,-10.17162
1809.9324,737.74,-10.17505
1810.0224,737.84,-10.17923
1810.1124,737.94,-10.18365
1810.2024,738.04,-10.18797
1810.2924,738.14,-10.19235
1810.3824,738.24,-10.19691
1810.473,738.34,-10.20108
1810.563,738.44,-10.20411
1810.6536,738.54,-10.20631
1810.7436,738.64,-10.20855
1810.8342,738.74,-10.21126
1810.9242,738.84,-10.21439
1811.0142,738.94,-10.21776
1811.1042,739.04,-10.22099
1811.1948,739.14,-10.22382
1811.2848,739.24,-10.22649
1811.3748,739.34,-10.2293
1811.4648,739.44,-10.23239
1811.5548,739.54,-10.2358
1811.6448,739.64,-10.2394
1811.7348,739.74,-10.24291
1811.8254,739.84,-10.24621
1811.916,739.94,-10.24946
1812.0066,740.04,-10.25276
1812.0972,740.14,-10.25613
1812.1872,740.24,-10.25951
1812.2778,740.34,-10.26257
1812.3684,740.44,-10.26499
1812.459,740.54,-10.26699
1812.5496,740.64,-10.26907
1812.6396,740.74,-10.27126
1812.7296,740.84,-10.27319
1812.8202,740.94,-10.27488
1812.9102,741.04,-10.27695
1813.0008,741.14,-10.27979
1813.0908,741.24,-10.28305
1813.1814,741.34,-10.28629
1813.272,741.44,-10.28945
1813.3626,741.54,-10.29261
1813.4526,741.64,-10.29592
1813.5432,741.74,-10.29957
1813.6338,741.84,-10.30321
1813.7244,741.94,-10.30599
1813.815,742.04,-10.30775
1813.9056,742.14,-10.30966
1813.9962,742.24,-10.31258
1814.0868,742.34,-10.31584
1814.1774,742.44,-10.31862
1814.268,742.54,-10.3213
1814.3586,742.64,-10.32471
1814.4486,742.74,-10.32902
1814.5392,742.84,-10.33395
1814.6298,742.94,-10.33897
1814.7204,743.04,-10.34324
1814.811,743.14,-10.34636
1814.9016,743.24,-10.34885
1814.9922,743.34,-10.35124
1815.0834,743.44,-10.35363
1815.174,743.54,-10.35602
1815.2652,743.64,-10.35856
1815.3564,743.74,-10.36141
1815.447,743.84,-10.36477
1815.5382,743.94,-10.36882
1815.6288,744.04,-10.37327
1815.72,744.14,-10.37719
1815.8106,744.24,-10.38017
1815.9018,744.34,-10.38292
1815.9924,744.44,-10.38599
1816.0836,744.54,-10.38889
1816.1748,744.64,-10.39105
1816.2654,744.74,-10.39302
1816.356,744.84,-10.39578
1816.4472,744.94,-10.39906
1816.5378,745.04,-10.40173
1816.6284,745.14,-10.40361
1816.7196,745.24,-10.40567
1816.8102,745.34,-10.40853
1816.9014,745.44,-10.41196
1816.9926,745.54,-10.41564
1817.0832,745.64,-10.41944
1817.1744,745.74,-10.42323
1817.265,745.84,-10.42667
1817.3562,745.94,-10.42935
1817.4468,746.04,-10.43141
1817.538,746.14,-10.43337
1817.6286,746.24,-10.43557
1817.7192,746.34,-10.43805
1817.8104,746.44,-10.44084
1817.9016,746.54,-10.444
1817.9928,746.64,-10.44746
1818.084,746.74,-10.4506
1818.1752,746.84,-10.45287
1818.2658,746.94,-10.45487
1818.357,747.04,-10.4576
1818.4482,747.14,-10.46085
1818.5388,747.24,-10.46357
1818.6306,747.34,-10.46576
1818.7218,747.44,-10.4687
1818.813,747.54,-10.47273
1818.9042,747.64,-10.47616
1818.9954,747.74,-10.47775
1819.0866,747.84,-10.47875
1819.1778,747.94,-10.48069
1819.269,748.04,-10.48335
1819.3608,748.14,-10.48592
1819.452,748.24,-10.48817
1819.5438,748.34,-10.49026
1819.635,748.44,-10.49239
1819.7268,748.54,-10.4947
1819.8186,748.64,-10.49713
1819.9098,748.74,-10.4991
1820.0016,748.84,-10.50035
1820.0934,748.94,-10.50155
1820.1852,749.04,-10.50335
1820.2764,749.14,-10.50547
1820.3682,749.24,-10.50738
1820.46,749.34,-10.50936
1820.5518,749.44,-10.51198
1820.643,749.54,-10.51509
1820.7348,749.64,-10.51788
1820.826,749.74,-10.52003
1820.9178,749.84,-10.52194
1821.0096,749.94,-10.52412
1821.1014,750.04,-10.52723
1821.1926,750.14,-10.53157
1821.2844,750.24,-10.53598
1821.3762,750.34,-10.53918
1821.468,750.44,-10.54131
1821.5598,750.54,-10.54309
1821.6516,750.64,-10.54481
1821.7434,750.74,-10.54649
1821.8352,750.84,-10.54823
1821.927,750.94,-10.5502
1822.0188,751.04,-10.55246
1822.1106,751.14,-10.55488
1822.2018,751.24,-10.55742
1822.2936,751.34,-10.56027
1822.3854,751.44,-10.56354
1822.4772,751.54,-10.56663
1822.569,751.64,-10.56884
1822.6608,751.74,-10.57056
1822.752,751.84,-10.57271
1822.8438,751.94,-10.57547
1822.935,752.04,-10.57838
1823.0268,752.14,-10.58106
1823.1186,752.24,-10.58323
1823.2104,752.34,-10.58481
1823.3022,752.44,-10.58615
1823.3934,752.54,-10.58756
1823.4852,752.64,-10.5889
1823.577,752.74,-10.59006
1823.6688,752.84,-10.59139
1823.7606,752.94,-10.59344
1823.8518,753.04,-10.59624
1823.9436,753.14,-10.59948
1824.0354,753.24,-10.60275
1824.1272,753.34,-10.60549
1824.219,753.44,-10.60747
1824.3108,753.54,-10.60898
1824.4026,753.64,-10.61031
1824.4944,753.74,-10.61144
1824.5862,753.84,-10.61238
1824.678,753.94,-10.61353
1824.7704,754.04,-10.6153
1824.8622,754.14,-10.61743
1824.9546,754.24,-10.61934
1825.0464,754.34,-10.62082
1825.1382,754.44,-10.62194
1825.23,754.54,-10.62293
1825.3218,754.64,-10.62418
1825.4148,754.74,-10.62578
1825.5072,754.84,-10.62715
1825.5996,754.94,-10.62801
1825.6914,755.04,-10.62921
1825.7838,755.14,-10.63157
1825.8762,755.24,-10.63437
1825.9692,755.34,-10.63648
1826.0622,755.44,-10.63782
1826.1546,755.54,-10.63883
1826.247,755.64,-10.63986
1826.3394,755.74,-10.6412
1826.4312,755.84,-10.64311
1826.5236,755.94,-10.64582
1826.616,756.04,-10.64908
1826.7084,756.14,-10.65162
1826.8008,756.24,-10.65263
1826.8932,756.34,-10.65291
1826.9862,756.44,-10.65344
1827.0786,756.54,-10.65438
1827.171,756.64,-10.65561
1827.2634,756.74,-10.65685
1827.3558,756.84,-10.65777
1827.4488,756.94,-10.65852
1827.5412,757.04,-10.65967
1827.6336,757.14,-10.66116
1827.726,757.24,-10.66233
1827.819,757.34,-10.66288
1827.9114,757.44,-10.66325
1828.0038,757.54,-10.66395
1828.0962,757.64,-10.66538
1828.188,757.74,-10.66776
1828.2804,757.84,-10.67054
1828.3728,757.94,-10.67303
1828.4658,758.04,-10.67526
1828.5582,758.14,-10.67757
1828.65,758.24,-10.68006
1828.743,758.34,-10.68261
1828.8354,758.44,-10.68485
1828.9284,758.54,-10.68615
1829.0214,758.64,-10.68636
1829.1144,758.74,-10.68609
1829.2074,758.84,-10.68601
1829.2998,758.94,-10.68671
1829.3922,759.04,-10.68854
1829.4846,759.14,-10.69104
1829.5776,759.24,-10.69354
1829.6706,759.34,-10.69544
1829.763,759.44,-10.69624
1829.856,759.54,-10.69658
1829.9484,759.64,-10.69772
1830.0414,759.74,-10.69977
1830.1344,759.84,-10.70173
1830.2268,759.94,-10.70322
1830.3198,760.04,-10.70469
1830.4128,760.14,-10.70625
1830.5058,760.24,-10.707
1830.5988,760.34,-10.70646
1830.6924,760.44,-10.70579
1830.786,760.54,-10.70627
1830.879,760.64,-10.70787
1830.9726,760.74,-10.71012
1831.0656,760.84,-10.71222
1831.1586,760.94,-10.71331
1831.2516,761.04,-10.71367
1831.3446,761.14,-10.71436
1831.437,761.24,-10.71575
1831.53,761.34,-10.71743
1831.623,761.44,-10.71908
1831.7166,761.54,-10.72063
1831.8102,761.64,-10.72199
1831.9032,761.74,-10.72305
1831.9962,761.84,-10.72378
1832.0892,761.94,-10.72459
1832.1822,762.04,-10.72581
1832.2752,762.14,-10.7271
1832.3688,762.24,-10.72794
1832.4624,762.34,-10.72868
1832.5554,762.44,-10.73009
1832.649,762.54,-10.73214
1832.742,762.64,-10.7342
1832.8356,762.74,-10.73596
1832.9286,762.84,-10.73755
1833.0222,762.94,-10.73906
1833.1152,763.04,-10.74053
1833.2088,763.14,-10.74202
1833.3024,763.24,-10.74366
1833.3954,763.34,-10.74556
1833.4884,763.44,-10.74771
1833.5814,763.54,-10.75004
1833.675,763.64,-10.75237
1833.7686,763.74,-10.75454
1833.8622,763.84,-10.75689
1833.9558,763.94,-10.75999
1834.0494,764.04,-10.76338
1834.143,764.14,-10.76584
1834.2366,764.24,-10.76722
1834.3296,764.34,-10.76856
1834.4232,764.44,-10.77036
1834.5168,764.54,-10.77221
1834.6104,764.64,-10.77383
1834.7046,764.74,-10.7756
1834.7982,764.84,-10.7778
1834.8918,764.94,-10.77999
1834.9854,765.04,-10.78172
1835.079,765.14,-10.78329
1835.1726,765.24,-10.78518
1835.2662,765.34,-10.78737
1835.3598,765.44,-10.7896
1835.4534,765.54,-10.79143
1835.547,765.64,-10.79231
1835.6406,765.74,-10.79263
1835.7342,765.84,-10.79369
1835.8278,765.94,-10.79567
1835.9214,766.04,-10.79717
1836.015,766.14,-10.79752
1836.1092,766.24,-10.79788
1836.2028,766.34,-10.79913
1836.2964,766.44,-10.80063
1836.3906,766.54,-10.80165
1836.4842,766.64,-10.80236
1836.5778,766.74,-10.80309
1836.672,766.84,-10.80379
1836.7662,766.94,-10.80428
1836.861,767.04,-10.80445
1836.9546,767.14,-10.80429
1837.0488,767.24,-10.80418
1837.1424,767.34,-10.80478
1837.236,767.44,-10.80601
1837.3302,767.54,-10.80689
1837.4238,767.64,-10.80715
1837.518,767.74,-10.80765
1837.6116,767.84,-10.80894
1837.7052,767.94,-10.81051
1837.7994,768.04,-10.81185
1837.8936,768.14,-10.81273
1837.9878,768.24,-10.81314
1838.0814,768.34,-10.81364
1838.175,768.44,-10.81485
1838.2692,768.54,-10.8164
1838.3634,768.64,-10.81756
1838.4576,768.74,-10.81789
1838.5518,768.84,-10.81719
1838.646,768.94,-10.81599
1838.7396,769.04,-10.81542
1838.8338,769.14,-10.8159
1838.9274,769.24,-10.81698
1839.0216,769.34,-10.81824
1839.1158,769.44,-10.81945
1839.21,769.54,-10.82042
1839.3036,769.64,-10.82109
1839.3978,769.74,-10.82145
1839.4914,769.84,-10.8218
1839.5856,769.94,-10.82243
1839.6798,770.04,-10.82351
1839.774,770.14,-10.8251
1839.8688,770.24,-10.82685
1839.963,770.34,-10.8283
1840.0572,770.44,-10.82934
1840.152,770.54,-10.83013
1840.2462,770.64,-10.83079
1840.3404,770.74,-10.83142
1840.4346,770.84,-10.83208
1840.5294,770.94,-10.83275
1840.6242,771.04,-10.83335
1840.719,771.14,-10.83373
1840.8138,771.24,-10.83402
1840.908,771.34,-10.83494
1841.0022,771.44,-10.83679
1841.097,771.54,-10.83827
1841.1918,771.64,-10.83824
1841.2866,771.74,-10.83767
1841.3814,771.84,-10.83787
1841.4756,771.94,-10.8386
1841.5704,772.04,-10.83909
1841.6652,772.14,-10.83924
1841.76,772.24,-10.83929
1841.8548,772.34,-10.83951
1841.9496,772.44,-10.84015
1842.0444,772.54,-10.84117
1842.1392,772.64,-10.84229
1842.2346,772.74,-10.84337
1842.3294,772.84,-10.84447
1842.4236,772.94,-10.8456
1842.5184,773.04,-10.84657
1842.6132,773.14,-10.84722
1842.708,773.24,-10.84758
1842.8028,773.34,-10.84778
1842.8976,773.44,-10.84836
1842.9924,773.54,-10.84972
1843.0872,773.64,-10.85136
1843.182,773.74,-10.85263
1843.2762,773.84,-10.85344
1843.3716,773.94,-10.85389
1843.4664,774.04,-10.85407
1843.5618,774.14,-10.85406
1843.6566,774.24,-10.85389
1843.7514,774.34,-10.85356
1843.8456,774.44,-10.85298
1843.9404,774.54,-10.85194
1844.0358,774.64,-10.85081
1844.1312,774.74,-10.8506
1844.226,774.84,-10.85158
1844.3214,774.94,-10.85274
1844.4162,775.04,-10.85345
1844.5116,775.14,-10.85408
1844.6058,775.24,-10.85492
1844.7006,775.34,-10.85563
1844.796,775.44,-10.85595
1844.8908,775.54,-10.85639
1844.9862,775.64,-10.85748
1845.0816,775.74,-10.8591
1845.177,775.84,-10.86086
1845.2724,775.94,-10.86209
1845.3678,776.04,-10.86217
1845.4626,776.14,-10.86168
1845.5574,776.24,-10.86179
1845.6528,776.34,-10.86244
1845.7476,776.44,-10.86268
1845.8436,776.54,-10.8623
1845.9384,776.64,-10.86191
1846.0338,776.74,-10.86217
1846.1286,776.84,-10.86372
1846.2234,776.94,-10.8665
1846.3188,777.04,-10.86917
1846.4148,777.14,-10.8707
1846.5102,777.24,-10.87099
1846.605,777.34,-10.8703
1846.6998,777.44,-10.86943
1846.7952,777.54,-10.86915
1846.8906,777.64,-10.86959
1846.9854,777.74,-10.87065
1847.0808,777.84,-10.87177
1847.1762,777.94,-10.87234
1847.2716,778.04,-10.87246
1847.367,778.14,-10.87255
1847.4624,778.24,-10.87251
1847.5578,778.34,-10.87198
1847.6532,778.44,-10.87124
1847.7486,778.54,-10.87095
1847.844,778.64,-10.87136
1847.9394,778.74,-10.87225
1848.0354,778.84,-10.87329
1848.1308,778.94,-10.874
1848.2268,779.04,-10.87429
1848.3222,779.14,-10.8748
1848.4176,779.24,-10.87585
1848.513,779.34,-10.8771
1848.609,779.44,-10.87818
1848.705,779.54,-10.87895
1848.801,779.64,-10.87933
1848.897,779.74,-10.87944
1848.993,779.84,-10.8794
1849.089,779.94,-10.8793
1849.1844,780.04,-10.87917
1849.2804,780.14,-10.87914
1849.3764,780.24,-10.87931
1849.4718,780.34,-10.87942
1849.5678,780.44,-10.87913
1849.6638,780.54,-10.87887
1849.7598,780.64,-10.87948
1849.8558,780.74,-10.88084
1849.9512,780.84,-10.88222
1850.0472,780.94,-10.88309
1850.1432,781.04,-10.88315
1850.2392,781.14,-10.88256
1850.3352,781.24,-10.88199
1850.4306,781.34,-10.88179
1850.5266,781.44,-10.88183
1850.6226,781.54,-10.88194
1850.7186,781.64,-10.88199
1850.814,781.74,-10.88203
1850.91,781.84,-10.88252
1851.006,781.94,-10.88366
1851.102,782.04,-10.88477
1851.198,782.14,-10.88526
1851.294,782.24,-10.88554
1851.39,782.34,-10.88608
1851.486,782.44,-10.88634
1851.582,782.54,-10.88571
1851.6774,782.64,-10.88503
1851.7734,782.74,-10.88547
1851.87,782.84,-10.88663
1851.966,782.94,-10.88738
1852.0626,783.04,-10.88769
1852.1586,783.14,-10.88816
1852.2552,783.24,-10.88871
1852.3512,783.34,-10.88886
1852.4472,783.44,-10.88893
1852.5432,783.54,-10.88996
1852.6392,783.64,-10.89176
1852.7358,783.74,-10.89265
1852.8318,783.84,-10.89219
1852.9284,783.94,-10.89175
1853.0244,784.04,-10.8921
1853.121,784.14,-10.89271
1853.217,784.24,-10.89313
1853.3136,784.34,-10.89335
1853.4102,784.44,-10.89339
1853.5062,784.54,-10.89316
1853.6028,784.64,-10.89267
1853.6988,784.74,-10.8922
1853.7954,784.84,-10.892
1853.8914,784.94,-10.89179
1853.988,785.04,-10.8913
1854.0846,785.14,-10.89095
1854.1812,785.24,-10.89126
1854.2778,785.34,-10.89192
1854.3744,785.44,-10.89234
1854.471,785.54,-10.89248
1854.5676,785.64,-10.89256
1854.6642,785.74,-10.89267
1854.7608,785.84,-10.89285
1854.8574,785.94,-10.89323
1854.954,786.04,-10.89396
1855.0512,786.14,-10.89458
1855.1484,786.24,-10.89413
1855.245,786.34,-10.89271
1855.3416,786.44,-10.89148
1855.4382,786.54,-10.89107
1855.5342,786.64,-10.89141
1855.6314,786.74,-10.8923
1855.728,786.84,-10.8935
1855.8246,786.94,-10.89462
1855.9212,787.04,-10.89518
1856.0184,787.14,-10.89494
1856.115,787.24,-10.89431
1856.2116,787.34,-10.89368
1856.3088,787.44,-10.89325
1856.4054,787.54,-10.89321
1856.502,787.64,-10.89384
1856.5986,787.74,-10.89519
1856.6952,787.84,-10.89638
1856.7918,787.94,-10.89661
1856.889,788.04,-10.89654
1856.9856,788.14,-10.89698
1857.0822,788.24,-10.89712
1857.1788,788.34,-10.89584
1857.276,788.44,-10.89371
1857.3726,788.54,-10.892
1857.4698,788.64,-10.89162
1857.5664,788.74,-10.89317
1857.6624,788.84,-10.89572
1857.759,788.94,-10.89752
1857.8562,789.04,-10.89871
1857.9528,789.14,-10.90074
1858.05,789.24,-10.90293
1858.1472,789.34,-10.90282
1858.2444,789.44,-10.90068
1858.341,789.54,-10.89962
1858.4376,789.64,-10.90039
1858.5342,789.74,-10.90067
1858.6314,789.84,-10.89952
1858.7286,789.94,-10.89824
1858.8258,790.04,-10.89788
1858.923,790.14,-10.8987
1859.0202,790.24,-10.90041
1859.1168,790.34,-10.90177
1859.214,790.44,-10.90207
1859.3112,790.54,-10.90201
1859.4078,790.64,-10.90224
1859.5056,790.74,-10.90248
1859.6022,790.84,-10.90242
1859.6994,790.94,-10.90209
1859.7966,791.04,-10.90163
1859.8932,791.14,-10.90123
1859.9904,791.24,-10.90107
1860.0876,791.34,-10.90108
1860.1848,791.44,-10.90113
1860.2826,791.54,-10.9012
1860.3804,791.64,-10.90135
1860.4782,791.74,-10.90162
1860.576,791.84,-10.90199
1860.6732,791.94,-10.90197
1860.7704,792.04,-10.90098
1860.8676,792.14,-10.8999
1860.9654,792.24,-10.90028
1861.0638,792.34,-10.90166
1861.161,792.44,-10.90243
1861.2588,792.54,-10.90248
1861.356,792.64,-10.90282
1861.4538,792.74,-10.90367
1861.551,792.84,-10.90462
1861.6488,792.94,-10.90532
1861.746,793.04,-10.90544
1861.8438,793.14,-10.90482
1861.9416,793.24,-10.90345
1862.0388,793.34,-10.90224
1862.1366,793.44,-10.90309
1862.2344,793.54,-10.90593
1862.3316,793.64,-10.90776
1862.4294,793.74,-10.90726
1862.5272,793.84,-10.90602
1862.625,793.94,-10.90509
1862.7228,794.04,-10.90412
1862.8206,794.14,-10.90304
1862.9178,794.24,-10.9027
1863.0156,794.34,-10.90342
1863.1128,794.44,-10.90407
1863.21,794.54,-10.90376
1863.3078,794.64,-10.90282
1863.405,794.74,-10.90166
1863.5028,794.84,-10.90027
1863.6006,794.94,-10.89882
1863.6984,795.04,-10.89826
1863.7956,795.14,-10.89923
1863.8934,795.24,-10.90019
1863.9912,795.34,-10.89955
1864.0896,795.44,-10.8983
1864.1874,795.54,-10.89789
1864.2852,795.64,-10.89823
1864.3836,795.74,-10.89873
1864.482,795.84,-10.8993
1864.5804,795.94,-10.90005
1864.6782,796.04,-10.90107
1864.7766,796.14,-10.90239
1864.8744,796.24,-10.90326
1864.9722,796.34,-10.9028
1865.0706,796.44,-10.90196
1865.169,796.54,-10.90245
1865.2668,796.64,-10.90411
1865.3652,796.74,-10.90575
1865.463,796.84,-10.90712
1865.5614,796.94,-10.90855
1865.6592,797.04,-10.90982
1865.7576,797.14,-10.91032
1865.856,797.24,-10.91026
1865.9544,797.34,-10.91042
1866.0528,797.44,-10.91064
1866.1512,797.54,-10.90999
1866.249,797.64,-10.90865
1866.3474,797.74,-10.90781
1866.4464,797.84,-10.9079
1866.5448,797.94,-10.90844
1866.6426,798.04,-10.90912
1866.7416,798.14,-10.90987
1866.84,798.24,-10.91057
1866.9384,798.34,-10.91103
1867.0368,798.44,-10.91104
1867.1346,798.54,-10.91037
1867.233,798.64,-10.9095
1867.3314,798.74,-10.90994
1867.4304,798.84,-10.91196
1867.5288,798.94,-10.91375
1867.6278,799.04,-10.91433
1867.7256,799.14,-10.91443
1867.824,799.24,-10.91475
1867.9224,799.34,-10.91566
1868.0214,799.44,-10.91713
1868.1204,799.54,-10.91849
1868.2188,799.64,-10.91926
1868.3178,799.74,-10.91971
1868.4162,799.84,-10.91997
1868.5152,799.94,-10.91962
1868.6136,800.04,-10.91843
1868.712,800.14,-10.91687
1868.811,800.24,-10.91554
1868.91,800.34,-10.91504
1869.0084,800.44,-10.91564
1869.1074,800.54,-10.91644
1869.2058,800.64,-10.91671
1869.3042,800.74,-10.91705
1869.4026,800.84,-10.91796
1869.501,800.94,-10.91869
1869.6,801.04,-10.91851
1869.6984,801.14,-10.9179
1869.7974,801.24,-10.91748
1869.8964,801.34,-10.91739
1869.9954,801.44,-10.91761
1870.0944,801.54,-10.91805
1870.1934,801.64,-10.91859
1870.2918,801.74,-10.91909
1870.3908,801.84,-10.91949
1870.4898,801.94,-10.92006
1870.5882,802.04,-10.92111
1870.6866,802.14,-10.92251
1870.785,802.24,-10.92396
1870.8834,802.34,-10.92492
1870.9824,802.44,-10.92494
1871.0814,802.54,-10.92493
1871.1804,802.64,-10.92608
1871.28,802.74,-10.92786
1871.379,802.84,-10.92911
1871.4774,802.94,-10.92976
1871.5764,803.04,-10.93015
1871.676,803.14,-10.93014
1871.775,803.24,-10.92948
1871.874,803.34,-10.92887
1871.973,803.44,-10.92936
1872.072,803.54,-10.93053
1872.171,803.64,-10.9312
1872.2706,803.74,-10.93088
1872.3696,803.84,-10.92955
1872.4686,803.94,-10.9286
1872.567,804.04,-10.92995
1872.666,804.14,-10.93256
1872.7644,804.24,-10.93378
1872.8634,804.34,-10.93347
1872.963,804.44,-10.9331
1873.062,804.54,-10.93309
1873.1616,804.64,-10.93309
1873.2606,804.74,-10.93326
1873.3596,804.84,-10.93404
1873.4586,804.94,-10.93511
1873.5582,805.04,-10.93554
1873.6572,805.14,-10.9349
1873.7562,805.24,-10.93325
1873.8552,805.34,-10.93186
1873.9542,805.44,-10.93287
1874.0532,805.54,-10.93577
1874.1528,805.64,-10.93777
1874.2518,805.74,-10.93796
1874.3508,805.84,-10.9372
1874.4504,805.94,-10.93627
1874.55,806.04,-10.93571
1874.6496,806.14,-10.93577
1874.7492,806.24,-10.93633
1874.8488,806.34,-10.93729
1874.9484,806.44,-10.9385
1875.048,806.54,-10.93993
1875.1476,806.64,-10.94159
1875.2478,806.74,-10.94303
1875.3474,806.84,-10.94328
1875.4476,806.94,-10.94263
1875.5472,807.04,-10.94266
1875.6474,807.14,-10.94372
1875.747,807.24,-10.94483
1875.8466,807.34,-10.94572
1875.9468,807.44,-10.94694
1876.047,807.54,-10.9481
1876.1466,807.64,-10.94784
1876.2462,807.74,-10.94642
1876.3458,807.84,-10.94582
1876.446,807.94,-10.94646
1876.5462,808.04,-10.94692
1876.6458,808.14,-10.94673
1876.746,808.24,-10.9466
1876.8456,808.34,-10.9467
1876.9452,808.44,-10.94658
1877.0448,808.54,-10.94613
1877.1444,808.64,-10.94569
1877.244,808.74,-10.94563
1877.3436,808.84,-10.94635
1877.4432,808.94,-10.94772
1877.5434,809.04,-10.94907
1877.6436,809.14,-10.95034
1877.7432,809.24,-10.95221
1877.8428,809.34,-10.95437
1877.9424,809.44,-10.95528
1878.0426,809.54,-10.95482
1878.1422,809.64,-10.95467
1878.2418,809.74,-10.95552
1878.342,809.84,-10.9568
1878.4422,809.94,-10.95786
1878.5418,810.04,-10.95821
1878.642,810.14,-10.95817
1878.7422,810.24,-10.95902
1878.8424,810.34,-10.96093
1878.9426,810.44,-10.96259
1879.0428,810.54,-10.96371
1879.1424,810.64,-10.96534
1879.242,810.74,-10.96702
1879.3428,810.84,-10.96648
1879.4436,810.94,-10.96414
1879.5438,811.04,-10.96373
1879.6446,811.14,-10.96587
1879.7448,811.24,-10.96727
1879.845,811.34,-10.96681
1879.9452,811.44,-10.96608
1880.0454,811.54,-10.96607
1880.1456,811.64,-10.96695
1880.2458,811.74,-10.9681
1880.3466,811.84,-10.96816
1880.4462,811.94,-10.96699
1880.5464,812.04,-10.96582
1880.6466,812.14,-10.96531
1880.7468,812.24,-10.96538
1880.8476,812.34,-10.96581
1880.9478,812.44,-10.96626
1881.048,812.54,-10.96648
1881.1482,812.64,-10.96629
1881.2484,812.74,-10.96594
1881.3492,812.84,-10.96602
1881.45,812.94,-10.96644
1881.5502,813.04,-10.96638
1881.6504,813.14,-10.96574
1881.7506,813.24,-10.96521
1881.8514,813.34,-10.96534
1881.9516,813.44,-10.96648
1882.0512,813.54,-10.96809
1882.1514,813.64,-10.96883
1882.2522,813.74,-10.96868
1882.3524,813.84,-10.96886
1882.4526,813.94,-10.9695
1882.5552,814.04,-10.96965
1882.6584,814.14,-10.96966
1882.7586,814.24,-10.97096
1882.8564,814.34,-10.97298
1882.9554,814.44,-10.97369
1883.0568,814.54,-10.97326
1883.1576,814.64,-10.97364
1883.2578,814.74,-10.97498
1883.3592,814.84,-10.97592
1883.4606,814.94,-10.97599
1883.5578,815.04,-10.97548
1883.658,815.14,-10.97498
1883.7732,815.24,-10.97528
1883.9034,815.34,-10.97639
