Time,Temperature,Heat Flow
[s],[K],[W/g]
1200.1002,306.872,-7.36E-04
1244.0322,306.972,-3.06E-04
1257.456,307.072,-1.05E-03
1264.5324,307.172,-2.08E-03
1270.032,307.272,-5.30E-03
1274.8104,307.372,-3.29E-03
1278.6426,307.472,-6.63E-03
1282.116,307.572,-9.41E-03
1284.9288,307.672,-1.05E-02
1287.7638,307.772,-1.03E-02
1290.1602,307.872,-1.21E-02
1292.4636,307.972,-1.35E-02
1294.674,308.072,-1.40E-02
1296.6486,308.172,-1.50E-02
1298.5176,308.272,-1.67E-02
1300.3014,308.372,-1.77E-02
1302.0072,308.472,-2.13E-02
1303.6488,308.572,-2.06E-02
1305.1368,308.672,-2.42E-02
1306.6308,308.772,-2.61E-02
1308.0822,308.872,-2.73E-02
1309.4196,308.972,-3.00E-02
1310.73,309.072,-3.19E-02
1312.0332,309.172,-3.31E-02
1313.2596,309.272,-3.41E-02
1314.4542,309.372,-3.88E-02
1315.6458,309.472,-3.98E-02
1316.772,309.572,-4.29E-02
1317.8802,309.672,-4.39E-02
1318.9164,309.772,-4.70E-02
1319.928,309.872,-4.83E-02
1320.942,309.972,-5.15E-02
1321.9644,310.072,-5.22E-02
1322.9346,310.172,-5.51E-02
1323.8658,310.272,-5.85E-02
1324.785,310.372,-5.95E-02
1325.694,310.472,-6.23E-02
1326.5736,310.572,-6.39E-02
1327.434,310.672,-6.80E-02
1328.292,310.772,-7.24E-02
1329.132,310.872,-7.53E-02
1329.9252,310.972,-7.70E-02
1330.7082,311.072,-7.88E-02
1331.4996,311.172,-8.10E-02
1332.303,311.272,-8.14E-02
1333.074,311.372,-8.45E-02
1333.8276,311.472,-8.83E-02
1334.5656,311.572,-9.13E-02
1335.3072,311.672,-9.57E-02
1336.0284,311.772,-9.49E-02
1336.7334,311.872,-9.77E-02
1337.4216,311.972,-0.10327
1338.1086,312.072,-0.10424
1338.7848,312.172,-0.10692
1339.443,312.272,-0.11009
1340.0982,312.372,-0.11033
1340.7444,312.472,-0.11614
1341.3786,312.572,-0.11711
1342.0224,312.672,-0.11999
1342.6446,312.772,-0.12401
1343.2668,312.872,-0.12605
1343.88,312.972,-0.13018
1344.495,313.072,-0.13346
1345.0998,313.172,-0.13721
1345.683,313.272,-0.13733
1346.268,313.372,-0.14149
1346.8338,313.472,-0.14673
1347.3948,313.572,-0.14754
1347.9618,313.672,-0.15077
1348.5126,313.772,-0.15215
1349.0826,313.872,-0.15723
1349.6268,313.972,-0.15965
1350.1686,314.072,-0.16241
1350.7014,314.172,-0.16473
1351.2354,314.272,-0.16644
1351.7538,314.372,-0.17131
1352.2716,314.472,-0.17237
1352.7846,314.572,-0.17586
1353.2868,314.672,-0.18043
1353.7986,314.772,-0.18221
1354.3002,314.872,-0.18704
1354.8006,314.972,-0.19021
1355.2956,315.072,-0.19228
1355.7864,315.172,-0.19661
1356.2664,315.272,-0.19893
1356.7464,315.372,-0.20058
1357.2318,315.472,-0.20501
1357.7076,315.572,-0.20776
1358.1786,315.672,-0.20854
1358.6412,315.772,-0.21206
1359.0942,315.872,-0.21722
1359.549,315.972,-0.2218
1360.0056,316.072,-0.22272
1360.461,316.172,-0.22573
1360.9152,316.272,-0.22884
1361.3682,316.372,-0.23169
1361.8086,316.472,-0.23503
1362.2484,316.572,-0.23825
1362.6738,316.672,-0.24219
1363.104,316.772,-0.24432
1363.53,316.872,-0.24706
1363.9578,316.972,-0.24974
1364.3694,317.072,-0.25328
1364.7822,317.172,-0.25691
1365.2022,317.272,-0.25987
1365.615,317.372,-0.26205
1366.029,317.472,-0.264
1366.4268,317.572,-0.26721
1366.8366,317.672,-0.27133
1367.2494,317.772,-0.27337
1367.6436,317.872,-0.27608
1368.0384,317.972,-0.28075
1368.4314,318.072,-0.28367
1368.8304,318.172,-0.28606
1369.224,318.272,-0.29131
1369.6146,318.372,-0.29269
1370.0046,318.472,-0.29497
1370.3904,318.572,-0.29711
1370.7708,318.672,-0.29978
1371.1476,318.772,-0.30289
1371.5226,318.872,-0.30692
1371.8958,318.972,-0.31144
1372.269,319.072,-0.31463
1372.6434,319.172,-0.31663
1373.0136,319.272,-0.32008
1373.3862,319.372,-0.32285
1373.7552,319.472,-0.32482
1374.1284,319.572,-0.32916
1374.4872,319.672,-0.33289
1374.8442,319.772,-0.33496
1375.1988,319.872,-0.33856
1375.5558,319.972,-0.34075
1375.9092,320.072,-0.34468
1376.2596,320.172,-0.34875
1376.604,320.272,-0.35069
1376.9556,320.372,-0.35464
1377.303,320.472,-0.35808
1377.6504,320.572,-0.36274
1377.9948,320.672,-0.36757
1378.3356,320.772,-0.36917
1378.6746,320.872,-0.37296
1379.0166,320.972,-0.37607
1379.3532,321.072,-0.38001
1379.6886,321.172,-0.38311
1380.018,321.272,-0.38767
1380.3486,321.372,-0.39129
1380.6768,321.472,-0.39393
1381.0062,321.572,-0.39672
1381.3326,321.672,-0.40113
1381.6554,321.772,-0.40396
1381.974,321.872,-0.40596
1382.292,321.972,-0.40825
1382.6178,322.072,-0.41113
1382.9394,322.172,-0.41737
1383.2592,322.272,-0.419
1383.5724,322.372,-0.42012
1383.8886,322.472,-0.42588
1384.2048,322.572,-0.4263
1384.5168,322.672,-0.43036
1384.836,322.772,-0.43262
1385.1486,322.872,-0.43563
1385.46,322.972,-0.43866
1385.7678,323.072,-0.44175
1386.0774,323.172,-0.44487
1386.3822,323.272,-0.44906
1386.6846,323.372,-0.45432
1386.9906,323.472,-0.4571
1387.2906,323.572,-0.46079
1387.5888,323.672,-0.46248
1387.8852,323.772,-0.46698
1388.1822,323.872,-0.47176
1388.4786,323.972,-0.47468
1388.775,324.072,-0.47841
1389.0744,324.172,-0.48004
1389.366,324.272,-0.48476
1389.66,324.372,-0.48865
1389.9546,324.472,-0.49153
1390.2468,324.572,-0.49375
1390.5384,324.672,-0.49846
1390.8276,324.772,-0.50252
1391.1138,324.872,-0.50621
1391.4012,324.972,-0.50868
1391.6856,325.072,-0.51174
1391.973,325.172,-0.51624
1392.2574,325.272,-0.52032
1392.54,325.372,-0.52369
1392.822,325.472,-0.52653
1393.1022,325.572,-0.52976
1393.3818,325.672,-0.53365
1393.6602,325.772,-0.53773
1393.9362,325.872,-0.53993
1394.2098,325.972,-0.54331
1394.4822,326.072,-0.54465
1394.7612,326.172,-0.54787
1395.0348,326.272,-0.55194
1395.3078,326.372,-0.55546
1395.5796,326.472,-0.55873
1395.8544,326.572,-0.56304
1396.1274,326.672,-0.567
1396.4016,326.772,-0.56939
1396.6722,326.872,-0.57325
1396.9434,326.972,-0.57727
1397.2098,327.072,-0.57948
1397.4738,327.172,-0.58483
1397.7402,327.272,-0.58654
1398.0036,327.372,-0.59005
1398.2688,327.472,-0.59378
1398.5286,327.572,-0.59758
1398.7854,327.672,-0.60135
1399.0452,327.772,-0.60334
1399.3056,327.872,-0.60769
1399.5654,327.972,-0.61142
1399.8252,328.072,-0.61441
1400.0826,328.172,-0.61834
1400.3418,328.272,-0.62198
1400.5998,328.372,-0.62526
1400.8554,328.472,-0.62961
1401.1116,328.572,-0.63188
1401.3714,328.672,-0.63528
1401.6252,328.772,-0.63908
1401.879,328.872,-0.64341
1402.1328,328.972,-0.64813
1402.3836,329.072,-0.65248
1402.6344,329.172,-0.65655
1402.8822,329.272,-0.65985
1403.1294,329.372,-0.66339
1403.3784,329.472,-0.66773
1403.6274,329.572,-0.67165
1403.8722,329.672,-0.67465
1404.1182,329.772,-0.67762
1404.363,329.872,-0.68236
1404.6072,329.972,-0.68492
1404.8532,330.072,-0.68902
1405.1004,330.172,-0.69234
1405.3452,330.272,-0.69624
1405.59,330.372,-0.69976
1405.8342,330.472,-0.70312
1406.0748,330.572,-0.70529
1406.3142,330.672,-0.70954
1406.5566,330.772,-0.71198
1406.7978,330.872,-0.71542
1407.0384,330.972,-0.71829
1407.276,331.072,-0.72192
1407.5106,331.172,-0.7258
1407.7464,331.272,-0.73072
1407.9828,331.372,-0.73495
1408.2192,331.472,-0.73744
1408.4556,331.572,-0.74176
1408.6884,331.672,-0.74538
1408.9242,331.772,-0.74718
1409.1558,331.872,-0.75098
1409.3892,331.972,-0.75373
1409.6214,332.072,-0.75835
1409.8536,332.172,-0.76229
1410.087,332.272,-0.76543
1410.3198,332.372,-0.76923
1410.549,332.472,-0.77257
1410.7782,332.572,-0.77474
1411.0068,332.672,-0.78022
1411.2336,332.772,-0.7826
1411.461,332.872,-0.78563
1411.6884,332.972,-0.78884
1411.917,333.072,-0.79353
1412.1414,333.172,-0.7971
1412.3664,333.272,-0.80216
1412.5926,333.372,-0.80608
1412.8158,333.472,-0.80807
1413.0402,333.572,-0.81163
1413.2616,333.672,-0.81514
1413.4848,333.772,-0.81874
1413.7068,333.872,-0.82158
1413.9312,333.972,-0.8261
1414.1532,334.072,-0.83004
1414.3764,334.172,-0.83293
1414.5972,334.272,-0.83514
1414.8192,334.372,-0.83793
1415.04,334.472,-0.84229
1415.2596,334.572,-0.84599
1415.4768,334.672,-0.84842
1415.694,334.772,-0.85046
1415.9136,334.872,-0.8561
1416.1302,334.972,-0.86103
1416.3486,335.072,-0.86371
1416.5646,335.172,-0.86662
1416.7794,335.272,-0.87017
1416.9954,335.372,-0.87427
1417.2084,335.472,-0.87912
1417.4232,335.572,-0.88108
1417.6344,335.672,-0.88334
1417.8462,335.772,-0.88801
1418.061,335.872,-0.89252
1418.2722,335.972,-0.89657
1418.4852,336.072,-0.90054
1418.6976,336.172,-0.90345
1418.907,336.272,-0.90612
1419.117,336.372,-0.90924
1419.3294,336.472,-0.91344
1419.5376,336.572,-0.91625
1419.747,336.672,-0.92005
1419.957,336.772,-0.9237
1420.1658,336.872,-0.92713
1420.3758,336.972,-0.93118
1420.5828,337.072,-0.93498
1420.7916,337.172,-0.93799
1420.9992,337.272,-0.94088
1421.2062,337.372,-0.94451
1421.4114,337.472,-0.94787
1421.6172,337.572,-0.95109
1421.8218,337.672,-0.95398
1422.0282,337.772,-0.95896
1422.2334,337.872,-0.96262
1422.4398,337.972,-0.9657
1422.645,338.072,-0.96909
1422.8496,338.172,-0.97398
1423.0536,338.272,-0.97678
1423.257,338.372,-0.98079
1423.4628,338.472,-0.98476
1423.6644,338.572,-0.98754
1423.8678,338.672,-0.99225
1424.0706,338.772,-0.99615
1424.271,338.872,-0.9985
1424.4732,338.972,-1.00393
1424.6724,339.072,-1.00741
1424.8728,339.172,-1.01016
1425.0708,339.272,-1.01436
1425.2676,339.372,-1.01711
1425.4662,339.472,-1.01979
1425.6636,339.572,-1.02355
1425.861,339.672,-1.02573
1426.0572,339.772,-1.0313
1426.254,339.872,-1.03536
1426.4502,339.972,-1.03779
1426.647,340.072,-1.042
1426.8444,340.172,-1.04634
1427.0388,340.272,-1.04969
1427.2326,340.372,-1.05371
1427.427,340.472,-1.05615
1427.6196,340.572,-1.0582
1427.8152,340.672,-1.06221
1428.0108,340.772,-1.06619
1428.2058,340.872,-1.06996
1428.4008,340.972,-1.07448
1428.594,341.072,-1.07916
1428.7878,341.172,-1.08272
1428.9804,341.272,-1.08453
1429.173,341.372,-1.08691
1429.365,341.472,-1.09105
1429.557,341.572,-1.09493
1429.7502,341.672,-1.09862
1429.9416,341.772,-1.10197
1430.1348,341.872,-1.10453
1430.3292,341.972,-1.10906
1430.5182,342.072,-1.11119
1430.7066,342.172,-1.11298
1430.895,342.272,-1.11633
1431.0846,342.372,-1.11781
1431.2742,342.472,-1.12202
1431.462,342.572,-1.12622
1431.6516,342.672,-1.1312
1431.8394,342.772,-1.13491
1432.0266,342.872,-1.13917
1432.215,342.972,-1.14222
1432.4034,343.072,-1.14544
1432.5924,343.172,-1.14973
1432.7778,343.272,-1.15297
1432.9632,343.372,-1.15573
1433.1504,343.472,-1.15864
1433.3376,343.572,-1.16198
1433.5242,343.672,-1.16579
1433.7102,343.772,-1.1705
1433.895,343.872,-1.17426
1434.0804,343.972,-1.17825
1434.2658,344.072,-1.18167
1434.4512,344.172,-1.18413
1434.6384,344.272,-1.18715
1434.8238,344.372,-1.19252
1435.008,344.472,-1.19578
1435.191,344.572,-1.19785
1435.3728,344.672,-1.20151
1435.557,344.772,-1.205
1435.7412,344.872,-1.20848
1435.9254,344.972,-1.21152
1436.1078,345.072,-1.21354
1436.289,345.172,-1.21728
1436.4702,345.272,-1.22163
1436.6538,345.372,-1.22654
1436.8338,345.472,-1.22892
1437.0144,345.572,-1.23191
1437.1962,345.672,-1.23482
1437.3762,345.772,-1.23784
1437.5568,345.872,-1.24202
1437.7362,345.972,-1.24541
1437.9162,346.072,-1.24965
1438.0956,346.172,-1.25316
1438.2738,346.272,-1.2564
1438.452,346.372,-1.25857
1438.6308,346.472,-1.26259
1438.8102,346.572,-1.26613
1438.9896,346.672,-1.2697
1439.1678,346.772,-1.27399
1439.3442,346.872,-1.27687
1439.5212,346.972,-1.27964
1439.6988,347.072,-1.28409
1439.8752,347.172,-1.28924
1440.0522,347.272,-1.29197
1440.2286,347.372,-1.29586
1440.4056,347.472,-1.29956
1440.5826,347.572,-1.30188
1440.7584,347.672,-1.30428
1440.9324,347.772,-1.30753
1441.1076,347.872,-1.31208
1441.2822,347.972,-1.31625
1441.4538,348.072,-1.31895
1441.6272,348.172,-1.32154
1441.8012,348.272,-1.32458
1441.9752,348.372,-1.32762
1442.1504,348.472,-1.33137
1442.3226,348.572,-1.33537
1442.4948,348.672,-1.3377
1442.667,348.772,-1.34211
1442.8398,348.872,-1.34528
1443.012,348.972,-1.34787
1443.1842,349.072,-1.35297
1443.3558,349.172,-1.35844
1443.5286,349.272,-1.36122
1443.7008,349.372,-1.36402
1443.8736,349.472,-1.36713
1444.047,349.572,-1.36983
1444.2186,349.672,-1.37341
1444.3896,349.772,-1.37711
1444.5606,349.872,-1.38011
1444.7304,349.972,-1.38325
1444.9008,350.072,-1.38643
1445.0718,350.172,-1.38914
1445.2422,350.272,-1.39394
1445.412,350.372,-1.39546
1445.5818,350.472,-1.39761
1445.751,350.572,-1.40311
1445.9202,350.672,-1.40721
1446.0894,350.772,-1.41037
1446.258,350.872,-1.41416
1446.426,350.972,-1.41765
1446.5946,351.072,-1.4204
1446.7632,351.172,-1.42419
1446.9324,351.272,-1.42808
1447.1004,351.372,-1.42987
1447.2684,351.472,-1.43468
1447.4364,351.572,-1.43974
1447.6038,351.672,-1.44242
1447.7712,351.772,-1.44515
1447.9392,351.872,-1.44908
1448.1066,351.972,-1.45258
1448.2722,352.072,-1.45734
1448.4384,352.172,-1.46134
1448.6046,352.272,-1.46415
1448.7702,352.372,-1.46649
1448.9352,352.472,-1.46981
1449.0996,352.572,-1.47441
1449.2634,352.672,-1.47755
1449.4272,352.772,-1.48097
1449.5922,352.872,-1.4852
1449.7566,352.972,-1.48877
1449.921,353.072,-1.49181
1450.086,353.172,-1.49598
1450.2498,353.272,-1.49854
1450.413,353.372,-1.50068
1450.5756,353.472,-1.50425
1450.7394,353.572,-1.50868
1450.9038,353.672,-1.51231
1451.0664,353.772,-1.51579
1451.2302,353.872,-1.5203
1451.394,353.972,-1.5248
1451.5566,354.072,-1.52853
1451.7192,354.172,-1.53211
1451.883,354.272,-1.53559
1452.0462,354.372,-1.53751
1452.2076,354.472,-1.53997
1452.3696,354.572,-1.54408
1452.5316,354.672,-1.54901
1452.6918,354.772,-1.55341
1452.8538,354.872,-1.55643
1453.0152,354.972,-1.55943
1453.176,355.072,-1.56285
1453.3368,355.172,-1.56645
1453.4964,355.272,-1.5703
1453.6578,355.372,-1.57443
1453.818,355.472,-1.57867
1453.9782,355.572,-1.58304
1454.139,355.672,-1.58684
1454.2992,355.772,-1.58987
1454.4576,355.872,-1.59356
1454.6154,355.972,-1.59637
1454.775,356.072,-1.59923
1454.9334,356.172,-1.6032
1455.0924,356.272,-1.60747
1455.2514,356.372,-1.61152
1455.4086,356.472,-1.61599
1455.567,356.572,-1.62027
1455.726,356.672,-1.624
1455.8832,356.772,-1.62778
1456.041,356.872,-1.63124
1456.1976,356.972,-1.63497
1456.3548,357.072,-1.63889
1456.512,357.172,-1.64287
1456.668,357.272,-1.64729
1456.824,357.372,-1.65076
1456.9806,357.472,-1.65354
1457.1378,357.572,-1.65655
1457.2944,357.672,-1.66026
1457.451,357.772,-1.66445
1457.607,357.872,-1.66752
1457.7624,357.972,-1.67118
1457.9178,358.072,-1.67633
1458.0738,358.172,-1.68069
1458.2292,358.272,-1.68432
1458.384,358.372,-1.68731
1458.5388,358.472,-1.69083
1458.6936,358.572,-1.69504
1458.8484,358.672,-1.69756
1459.0026,358.772,-1.70185
1459.1574,358.872,-1.70632
1459.3116,358.972,-1.70906
1459.4652,359.072,-1.71279
1459.6206,359.172,-1.7162
1459.7748,359.272,-1.71908
1459.9284,359.372,-1.72248
1460.082,359.472,-1.72683
1460.235,359.572,-1.73093
1460.3874,359.672,-1.73529
1460.5398,359.772,-1.73918
1460.6916,359.872,-1.74167
1460.8434,359.972,-1.74432
1460.9958,360.072,-1.74834
1461.1482,360.172,-1.75272
1461.3012,360.272,-1.75649
1461.4542,360.372,-1.76054
1461.606,360.472,-1.76398
1461.7578,360.572,-1.76723
1461.909,360.672,-1.77012
1462.0614,360.772,-1.77192
1462.2102,360.872,-1.77615
1462.359,360.972,-1.7804
1462.5096,361.072,-1.78315
1462.659,361.172,-1.78726
1462.809,361.272,-1.79067
1462.959,361.372,-1.79414
1463.109,361.472,-1.79825
1463.2584,361.572,-1.8013
1463.4078,361.672,-1.80439
1463.5566,361.772,-1.80801
1463.7054,361.872,-1.81193
1463.8548,361.972,-1.81569
1464.003,362.072,-1.81841
1464.1512,362.172,-1.82212
1464.3,362.272,-1.82711
1464.4494,362.372,-1.82983
1464.5988,362.472,-1.83255
1464.7476,362.572,-1.83593
1464.8976,362.672,-1.83927
1465.0464,362.772,-1.84295
1465.194,362.872,-1.8469
1465.3422,362.972,-1.8506
1465.4904,363.072,-1.85403
1465.6386,363.172,-1.8581
1465.7862,363.272,-1.86228
1465.9338,363.372,-1.86557
1466.0802,363.472,-1.8682
1466.2272,363.572,-1.87224
1466.3748,363.672,-1.87597
1466.5218,363.772,-1.87937
1466.6694,363.872,-1.88393
1466.8164,363.972,-1.8872
1466.9628,364.072,-1.88997
1467.1092,364.172,-1.89339
1467.2538,364.272,-1.89704
1467.399,364.372,-1.9008
1467.5448,364.472,-1.90393
1467.6906,364.572,-1.90691
1467.837,364.672,-1.91209
1467.9822,364.772,-1.91741
1468.1274,364.872,-1.92029
1468.2732,364.972,-1.92108
1468.4184,365.072,-1.92435
1468.563,365.172,-1.92912
1468.7082,365.272,-1.93311
1468.8522,365.372,-1.93614
1468.9962,365.472,-1.93972
1469.1402,365.572,-1.94341
1469.283,365.672,-1.94672
1469.427,365.772,-1.95103
1469.5704,365.872,-1.95438
1469.7132,365.972,-1.95709
1469.8572,366.072,-1.9616
1470.0012,366.172,-1.96589
1470.144,366.272,-1.96926
1470.2856,366.372,-1.97243
1470.4278,366.472,-1.97603
1470.57,366.572,-1.97952
1470.7122,366.672,-1.98331
1470.8538,366.772,-1.98806
1470.9966,366.872,-1.99142
1471.14,366.972,-1.99421
1471.2816,367.072,-1.99779
1471.4244,367.172,-2.00075
1471.5666,367.272,-2.00406
1471.7088,367.372,-2.0085
1471.851,367.472,-2.01335
1471.9914,367.572,-2.01722
1472.1324,367.672,-2.02025
1472.274,367.772,-2.02331
1472.4156,367.872,-2.02646
1472.556,367.972,-2.03021
1472.697,368.072,-2.03459
1472.8386,368.172,-2.03872
1472.9808,368.272,-2.04233
1473.1224,368.372,-2.04528
1473.2634,368.472,-2.04796
1473.4044,368.572,-2.05192
1473.5454,368.672,-2.05652
1473.6852,368.772,-2.06028
1473.8262,368.872,-2.06286
1473.9672,368.972,-2.06613
1474.1064,369.072,-2.07043
1474.2462,369.172,-2.07428
1474.386,369.272,-2.07808
1474.5264,369.372,-2.08167
1474.6668,369.472,-2.08489
1474.8066,369.572,-2.08914
1474.9464,369.672,-2.09365
1475.085,369.772,-2.09707
1475.223,369.872,-2.09926
1475.3622,369.972,-2.10141
1475.5014,370.072,-2.10435
1475.6394,370.172,-2.10788
1475.778,370.272,-2.11128
1475.9166,370.372,-2.11459
1476.0552,370.472,-2.11817
1476.1932,370.572,-2.12146
1476.3312,370.672,-2.1249
1476.4692,370.772,-2.12868
1476.6072,370.872,-2.1313
1476.7452,370.972,-2.13396
1476.8832,371.072,-2.13779
1477.0194,371.172,-2.14177
1477.1562,371.272,-2.14643
1477.2936,371.372,-2.15163
1477.4304,371.472,-2.15581
1477.5666,371.572,-2.15854
1477.704,371.672,-2.16106
1477.842,371.772,-2.16486
1477.9794,371.872,-2.1678
1478.115,371.972,-2.17098
1478.2524,372.072,-2.17675
1478.3886,372.172,-2.1817
1478.5248,372.272,-2.18445
1478.6616,372.372,-2.18644
1478.7984,372.472,-2.1905
1478.9346,372.572,-2.19526
1479.0702,372.672,-2.19853
1479.207,372.772,-2.2013
1479.3432,372.872,-2.2036
1479.4788,372.972,-2.20572
1479.6156,373.072,-2.20901
1479.7518,373.172,-2.21306
1479.8874,373.272,-2.21737
1480.023,373.372,-2.22209
1480.1592,373.472,-2.22611
1480.2948,373.572,-2.22936
1480.4304,373.672,-2.23314
1480.566,373.772,-2.23724
1480.701,373.872,-2.24103
1480.8354,373.972,-2.24414
1480.9704,374.072,-2.24721
1481.1054,374.172,-2.25006
1481.2398,374.272,-2.25211
1481.3742,374.372,-2.25496
1481.5086,374.472,-2.25881
1481.643,374.572,-2.26248
1481.7774,374.672,-2.26571
1481.9118,374.772,-2.26904
1482.0462,374.872,-2.27322
1482.18,374.972,-2.27778
1482.3132,375.072,-2.28199
1482.447,375.172,-2.28554
1482.5814,375.272,-2.28931
1482.7152,375.372,-2.29314
1482.849,375.472,-2.29626
1482.9816,375.572,-2.29901
1483.1142,375.672,-2.30208
1483.248,375.772,-2.30571
1483.3818,375.872,-2.3084
1483.515,375.972,-2.3109
1483.6488,376.072,-2.31476
1483.782,376.172,-2.31858
1483.914,376.272,-2.32209
1484.0472,376.372,-2.3261
1484.1798,376.472,-2.33068
1484.3124,376.572,-2.33429
1484.445,376.672,-2.33585
1484.5776,376.772,-2.3387
1484.7102,376.872,-2.34277
1484.8428,376.972,-2.34572
1484.9748,377.072,-2.3486
1485.1062,377.172,-2.35186
1485.2382,377.272,-2.35516
1485.3702,377.372,-2.35914
1485.5022,377.472,-2.36313
1485.6336,377.572,-2.36578
1485.7644,377.672,-2.3687
1485.8952,377.772,-2.37276
1486.0266,377.872,-2.37732
1486.158,377.972,-2.38133
1486.2888,378.072,-2.3848
1486.4202,378.172,-2.38867
1486.5504,378.272,-2.39208
1486.6806,378.372,-2.39459
1486.8114,378.472,-2.397
1486.9422,378.572,-2.39973
1487.0718,378.672,-2.40264
1487.2026,378.772,-2.40519
1487.3328,378.872,-2.40777
1487.4636,378.972,-2.41081
1487.5938,379.072,-2.41392
1487.7246,379.172,-2.41746
1487.8548,379.272,-2.42169
1487.9844,379.372,-2.42565
1488.1146,379.472,-2.4296
1488.2454,379.572,-2.4341
1488.3756,379.672,-2.4382
1488.5052,379.772,-2.44105
1488.6354,379.872,-2.44276
1488.765,379.972,-2.4454
1488.894,380.072,-2.44928
1489.0236,380.172,-2.45283
1489.1532,380.272,-2.45591
1489.2828,380.372,-2.45877
1489.4124,380.472,-2.46165
1489.5414,380.572,-2.46487
1489.6704,380.672,-2.46795
1489.8,380.772,-2.46958
1489.929,380.872,-2.47159
1490.0586,380.972,-2.47559
1490.1882,381.072,-2.47959
1490.3172,381.172,-2.48279
1490.4456,381.272,-2.48551
1490.5746,381.372,-2.48838
1490.7036,381.472,-2.49139
1490.832,381.572,-2.49415
1490.961,381.672,-2.49694
1491.0906,381.772,-2.5
1491.2196,381.872,-2.50337
1491.3486,381.972,-2.50714
1491.477,382.072,-2.51079
1491.606,382.172,-2.51332
1491.7344,382.272,-2.51612
1491.8628,382.372,-2.52022
1491.9912,382.472,-2.5242
1492.1196,382.572,-2.52786
1492.2486,382.672,-2.53147
1492.3764,382.772,-2.53433
1492.5042,382.872,-2.53712
1492.632,382.972,-2.54095
1492.7598,383.072,-2.54421
1492.8876,383.172,-2.54669
1493.0154,383.272,-2.54989
1493.1438,383.372,-2.55339
1493.2716,383.472,-2.55671
1493.3994,383.572,-2.56028
1493.526,383.672,-2.56356
1493.6532,383.772,-2.56619
1493.7798,383.872,-2.5693
1493.9064,383.972,-2.57244
1494.033,384.072,-2.57464
1494.1596,384.172,-2.57714
1494.2868,384.272,-2.58114
1494.414,384.372,-2.58673
1494.5412,384.472,-2.59124
1494.6678,384.572,-2.5935
1494.7938,384.672,-2.5959
1494.9204,384.772,-2.59931
1495.0476,384.872,-2.6032
1495.1742,384.972,-2.60611
1495.3002,385.072,-2.6085
1495.4262,385.172,-2.61185
1495.5522,385.272,-2.61536
1495.6776,385.372,-2.61835
1495.8036,385.472,-2.62113
1495.929,385.572,-2.62438
1496.0544,385.672,-2.62818
1496.1804,385.772,-2.63137
1496.3064,385.872,-2.6345
1496.4324,385.972,-2.63877
1496.5584,386.072,-2.64316
1496.6844,386.172,-2.64672
1496.8098,386.272,-2.64932
1496.9346,386.372,-2.65175
1497.0594,386.472,-2.65448
1497.1842,386.572,-2.65683
1497.3096,386.672,-2.6593
1497.435,386.772,-2.66264
1497.5598,386.872,-2.66573
1497.684,386.972,-2.66848
1497.8088,387.072,-2.67199
1497.9336,387.172,-2.67573
1498.0584,387.272,-2.67903
1498.1838,387.372,-2.68215
1498.3086,387.472,-2.68522
1498.4328,387.572,-2.68817
1498.557,387.672,-2.69091
1498.6824,387.772,-2.69363
1498.8072,387.872,-2.6968
1498.9314,387.972,-2.70055
1499.0556,388.072,-2.70464
1499.1798,388.172,-2.7084
1499.3046,388.272,-2.71167
1499.4288,388.372,-2.71474
1499.5536,388.472,-2.7183
1499.6784,388.572,-2.72192
1499.802,388.672,-2.72413
1499.9256,388.772,-2.72631
1500.0492,388.872,-2.72986
1500.1734,388.972,-2.73372
1500.297,389.072,-2.7375
1500.4212,389.172,-2.74144
1500.5448,389.272,-2.7448
1500.6684,389.372,-2.74739
1500.7914,389.472,-2.75002
1500.9138,389.572,-2.75266
1501.0368,389.672,-2.75524
1501.1598,389.772,-2.75894
1501.2822,389.872,-2.76346
1501.4052,389.972,-2.7671
1501.5282,390.072,-2.77005
1501.6506,390.172,-2.77297
1501.773,390.272,-2.77581
1501.8954,390.372,-2.77895
1502.0172,390.472,-2.78278
1502.139,390.572,-2.78622
1502.2608,390.672,-2.78898
1502.3826,390.772,-2.79252
1502.5056,390.872,-2.79648
1502.6286,390.972,-2.79977
1502.751,391.072,-2.80313
1502.8728,391.172,-2.80683
1502.994,391.272,-2.81017
1503.1152,391.372,-2.81339
1503.2376,391.472,-2.81699
1503.3594,391.572,-2.82075
1503.4824,391.672,-2.82422
1503.6048,391.772,-2.82702
1503.7272,391.872,-2.82931
1503.849,391.972,-2.83178
1503.9702,392.072,-2.83559
1504.092,392.172,-2.84008
1504.2144,392.272,-2.84351
1504.3362,392.372,-2.84641
1504.4574,392.472,-2.84953
1504.5792,392.572,-2.85284
1504.701,392.672,-2.85627
1504.8228,392.772,-2.85973
1504.944,392.872,-2.86288
1505.0652,392.972,-2.86574
1505.1858,393.072,-2.86887
1505.307,393.172,-2.87259
1505.4288,393.272,-2.8768
1505.5506,393.372,-2.88053
1505.6718,393.472,-2.88347
1505.7936,393.572,-2.88628
1505.9142,393.672,-2.88923
1506.0348,393.772,-2.89253
1506.1548,393.872,-2.89669
1506.2748,393.972,-2.90107
1506.3948,394.072,-2.90404
1506.5148,394.172,-2.90707
1506.6348,394.272,-2.91165
1506.7548,394.372,-2.91545
1506.8748,394.472,-2.91785
1506.9954,394.572,-2.92069
1507.1154,394.672,-2.92396
1507.2354,394.772,-2.92713
1507.3554,394.872,-2.9307
1507.4754,394.972,-2.93486
1507.5954,395.072,-2.93916
1507.7148,395.172,-2.94274
1507.8342,395.272,-2.9452
1507.9536,395.372,-2.94787
1508.0736,395.472,-2.95171
1508.193,395.572,-2.95675
1508.3124,395.672,-2.96178
1508.4312,395.772,-2.9656
1508.5506,395.872,-2.96843
1508.6706,395.972,-2.97102
1508.7906,396.072,-2.97425
1508.91,396.172,-2.97782
1509.03,396.272,-2.98114
1509.1494,396.372,-2.98466
1509.2694,396.472,-2.98864
1509.3882,396.572,-2.99286
1509.507,396.672,-2.99719
1509.6258,396.772,-3.0015
1509.7446,396.872,-3.00529
1509.8628,396.972,-3.00832
1509.981,397.072,-3.01088
1510.0998,397.172,-3.01417
1510.2186,397.272,-3.01918
1510.3368,397.372,-3.0239
1510.455,397.472,-3.0272
1510.5726,397.572,-3.03057
1510.6902,397.672,-3.03452
1510.8084,397.772,-3.0387
1510.9266,397.872,-3.04274
1511.0454,397.972,-3.04646
1511.1636,398.072,-3.05004
1511.2806,398.172,-3.0537
1511.3976,398.272,-3.05761
1511.5158,398.372,-3.06168
1511.634,398.472,-3.06595
1511.7516,398.572,-3.07091
1511.8686,398.672,-3.07615
1511.9862,398.772,-3.08024
1512.1038,398.872,-3.08334
1512.2214,398.972,-3.08644
1512.3384,399.072,-3.0902
1512.456,399.172,-3.09475
1512.573,399.272,-3.09944
1512.69,399.372,-3.10332
1512.8064,399.472,-3.10572
1512.9234,399.572,-3.10821
1513.041,399.672,-3.11196
1513.158,399.772,-3.11563
1513.2744,399.872,-3.11894
1513.3908,399.972,-3.12286
1513.5072,400.072,-3.12748
1513.6236,400.172,-3.13239
1513.74,400.272,-3.13692
1513.8558,400.372,-3.14086
1513.9722,400.472,-3.14471
1514.0886,400.572,-3.1486
1514.2044,400.672,-3.15235
1514.3202,400.772,-3.15605
1514.4366,400.872,-3.15981
1514.5524,400.972,-3.16364
1514.6682,401.072,-3.16762
1514.784,401.172,-3.17191
1514.8998,401.272,-3.1766
1515.0162,401.372,-3.18161
1515.132,401.472,-3.18638
1515.2484,401.572,-3.19051
1515.3642,401.672,-3.19407
1515.4794,401.772,-3.19758
1515.5952,401.872,-3.20168
1515.7104,401.972,-3.20589
1515.8256,402.072,-3.20961
1515.9414,402.172,-3.21343
1516.0566,402.272,-3.21767
1516.1718,402.372,-3.22195
1516.287,402.472,-3.22658
1516.4022,402.572,-3.23207
1516.5174,402.672,-3.23739
1516.632,402.772,-3.24152
1516.7466,402.872,-3.24488
1516.8618,402.972,-3.24811
1516.9764,403.072,-3.25171
1517.091,403.172,-3.25583
1517.2062,403.272,-3.26023
1517.3208,403.372,-3.26433
1517.4348,403.472,-3.26805
1517.5488,403.572,-3.27274
1517.6634,403.672,-3.27848
1517.7774,403.772,-3.28368
1517.892,403.872,-3.28808
1518.0066,403.972,-3.29224
1518.1206,404.072,-3.29648
1518.2352,404.172,-3.30095
1518.3492,404.272,-3.30568
1518.4632,404.372,-3.31055
1518.5772,404.472,-3.31532
1518.6912,404.572,-3.32009
1518.8058,404.672,-3.32508
1518.9204,404.772,-3.33002
1519.0344,404.872,-3.33455
1519.1478,404.972,-3.33846
1519.2624,405.072,-3.34241
1519.3764,405.172,-3.34787
1519.4898,405.272,-3.35387
1519.6038,405.372,-3.35829
1519.7178,405.472,-3.36159
1519.8312,405.572,-3.36478
1519.9452,405.672,-3.36818
1520.0598,405.772,-3.37201
1520.1732,405.872,-3.37638
1520.286,405.972,-3.38096
1520.3994,406.072,-3.38524
1520.5128,406.172,-3.3895
1520.6256,406.272,-3.39409
1520.7384,406.372,-3.39874
1520.8506,406.472,-3.40339
1520.9634,406.572,-3.4084
1521.0762,406.672,-3.41334
1521.189,406.772,-3.41731
1521.3012,406.872,-3.42104
1521.4128,406.972,-3.42568
1521.5244,407.072,-3.43097
1521.6366,407.172,-3.43633
1521.7494,407.272,-3.44123
1521.8616,407.372,-3.44553
1521.9738,407.472,-3.44961
1522.0866,407.572,-3.45394
1522.1988,407.672,-3.4589
1522.3104,407.772,-3.4637
1522.422,407.872,-3.46769
1522.5342,407.972,-3.47178
1522.6458,408.072,-3.47628
1522.758,408.172,-3.47997
1522.8702,408.272,-3.48307
1522.9824,408.372,-3.48709
1523.0946,408.472,-3.49192
1523.2068,408.572,-3.49671
1523.3184,408.672,-3.50158
1523.43,408.772,-3.50658
1523.5422,408.872,-3.5108
1523.655,408.972,-3.51434
1523.7666,409.072,-3.5187
1523.8782,409.172,-3.52404
1523.9892,409.272,-3.52938
1524.1014,409.372,-3.53437
1524.213,409.472,-3.53887
1524.3246,409.572,-3.54267
1524.4362,409.672,-3.54598
1524.5472,409.772,-3.54993
1524.6582,409.872,-3.55472
1524.7692,409.972,-3.55938
1524.8802,410.072,-3.56358
1524.9912,410.172,-3.5676
1525.1022,410.272,-3.57184
1525.2132,410.372,-3.57653
1525.3242,410.472,-3.5811
1525.4352,410.572,-3.58513
1525.5462,410.672,-3.58898
1525.6566,410.772,-3.59314
1525.767,410.872,-3.59803
1525.8774,410.972,-3.6032
1525.9884,411.072,-3.60773
1526.0988,411.172,-3.61161
1526.2086,411.272,-3.61539
1526.319,411.372,-3.61992
1526.43,411.472,-3.62552
1526.5404,411.572,-3.63099
1526.6514,411.672,-3.63564
1526.7618,411.772,-3.63979
1526.8722,411.872,-3.64389
1526.9826,411.972,-3.64838
1527.0924,412.072,-3.65309
1527.2028,412.172,-3.65761
1527.3132,412.272,-3.66196
1527.4236,412.372,-3.66626
1527.534,412.472,-3.67068
1527.6438,412.572,-3.67546
1527.7536,412.672,-3.68084
1527.8628,412.772,-3.68675
1527.972,412.872,-3.69275
1528.0812,412.972,-3.69823
1528.1904,413.072,-3.70264
1528.3002,413.172,-3.70635
1528.4106,413.272,-3.71003
1528.5204,413.372,-3.71392
1528.6302,413.472,-3.71814
1528.74,413.572,-3.72276
1528.8492,413.672,-3.7275
1528.959,413.772,-3.73165
1529.0682,413.872,-3.73517
1529.1774,413.972,-3.73865
1529.2866,414.072,-3.74237
1529.3952,414.172,-3.74636
1529.5044,414.272,-3.75045
1529.6142,414.372,-3.75457
1529.7234,414.472,-3.75922
1529.832,414.572,-3.76462
1529.9406,414.672,-3.77006
1530.0498,414.772,-3.77512
1530.159,414.872,-3.77996
1530.2682,414.972,-3.78457
1530.3768,415.072,-3.78878
1530.486,415.172,-3.79265
1530.5946,415.272,-3.79632
1530.7038,415.372,-3.79995
1530.8124,415.472,-3.80373
1530.9204,415.572,-3.80818
1531.029,415.672,-3.81341
1531.137,415.772,-3.81848
1531.245,415.872,-3.823
1531.3536,415.972,-3.82764
1531.4616,416.072,-3.83264
1531.5702,416.172,-3.83772
1531.6782,416.272,-3.84247
1531.7868,416.372,-3.84652
1531.8948,416.472,-3.8501
1532.0034,416.572,-3.85364
1532.1114,416.672,-3.8571
1532.2176,416.772,-3.86053
1532.325,416.872,-3.86472
1532.433,416.972,-3.8698
1532.5416,417.072,-3.87441
1532.649,417.172,-3.87803
1532.7564,417.272,-3.88161
1532.8644,417.372,-3.88548
1532.9724,417.472,-3.88943
1533.0798,417.572,-3.89378
1533.1872,417.672,-3.89905
1533.294,417.772,-3.90459
1533.402,417.872,-3.90943
1533.5094,417.972,-3.91337
1533.6174,418.072,-3.91669
1533.7248,418.172,-3.92047
1533.8322,418.272,-3.92516
1533.9396,418.372,-3.92958
1534.0464,418.472,-3.93331
1534.1538,418.572,-3.93727
1534.2612,418.672,-3.94159
1534.368,418.772,-3.94563
1534.4748,418.872,-3.9494
1534.5816,418.972,-3.95336
1534.6884,419.072,-3.95723
1534.7958,419.172,-3.96054
1534.9032,419.272,-3.96384
1535.0106,419.372,-3.96782
1535.1174,419.472,-3.97248
1535.2236,419.572,-3.97753
1535.3304,419.672,-3.98238
1535.4372,419.772,-3.98662
1535.544,419.872,-3.99025
1535.6508,419.972,-3.99357
1535.7576,420.072,-3.99717
1535.865,420.172,-4.00128
1535.9718,420.272,-4.00579
1536.0774,420.372,-4.01037
1536.1836,420.472,-4.01465
1536.2904,420.572,-4.01869
1536.3966,420.672,-4.02269
1536.5034,420.772,-4.02657
1536.6096,420.872,-4.03023
1536.7164,420.972,-4.03396
1536.822,421.072,-4.03791
1536.9282,421.172,-4.04176
1537.035,421.272,-4.04553
1537.1418,421.372,-4.05
1537.248,421.472,-4.05507
1537.3542,421.572,-4.05944
1537.461,421.672,-4.06288
1537.5666,421.772,-4.06626
1537.6716,421.872,-4.07013
1537.7778,421.972,-4.07467
1537.884,422.072,-4.07939
1537.9896,422.172,-4.08357
1538.0952,422.272,-4.08732
1538.2008,422.372,-4.09104
1538.3064,422.472,-4.09488
1538.412,422.572,-4.09896
1538.5176,422.672,-4.10343
1538.6232,422.772,-4.10821
1538.7294,422.872,-4.11263
1538.8344,422.972,-4.11642
1538.94,423.072,-4.12018
1539.0462,423.172,-4.12428
1539.1512,423.272,-4.12864
1539.2568,423.372,-4.13291
1539.3618,423.472,-4.13655
1539.4668,423.572,-4.13981
1539.5718,423.672,-4.14354
1539.6762,423.772,-4.14775
1539.7812,423.872,-4.15202
1539.8862,423.972,-4.15636
1539.9912,424.072,-4.16097
1540.0968,424.172,-4.16601
1540.2024,424.272,-4.17132
1540.308,424.372,-4.17545
1540.413,424.472,-4.17751
1540.5174,424.572,-4.17967
1540.6224,424.672,-4.18365
1540.7274,424.772,-4.18855
1540.8324,424.872,-4.19344
1540.9374,424.972,-4.19815
1541.0418,425.072,-4.20252
1541.1468,425.172,-4.20642
1541.2518,425.272,-4.21021
1541.3568,425.372,-4.21475
1541.4612,425.472,-4.21964
1541.5662,425.572,-4.22341
1541.6706,425.672,-4.22634
1541.7744,425.772,-4.22985
1541.8782,425.872,-4.23387
1541.9826,425.972,-4.23765
1542.087,426.072,-4.24143
1542.1914,426.172,-4.24575
1542.2958,426.272,-4.24986
1542.4008,426.372,-4.25294
1542.5052,426.472,-4.25593
1542.6096,426.572,-4.25988
1542.7134,426.672,-4.26472
1542.8172,426.772,-4.26991
1542.921,426.872,-4.27434
1543.0248,426.972,-4.27742
1543.1292,427.072,-4.27991
1543.2336,427.172,-4.28271
1543.3374,427.272,-4.28661
1543.4418,427.372,-4.29142
1543.5456,427.472,-4.29558
1543.6494,427.572,-4.29868
1543.7532,427.672,-4.30182
1543.857,427.772,-4.30551
1543.9602,427.872,-4.30965
1544.0634,427.972,-4.31378
1544.1672,428.072,-4.3173
1544.2704,428.172,-4.32065
1544.3742,428.272,-4.32485
1544.478,428.372,-4.32936
1544.5818,428.472,-4.33303
1544.685,428.572,-4.33653
1544.7888,428.672,-4.34106
1544.8926,428.772,-4.34611
1544.9964,428.872,-4.35068
1545.0996,428.972,-4.35452
1545.2028,429.072,-4.35771
1545.3066,429.172,-4.36059
1545.4098,429.272,-4.36356
1545.5136,429.372,-4.36694
1545.6162,429.472,-4.37069
1545.7194,429.572,-4.37384
1545.822,429.672,-4.37607
1545.9246,429.772,-4.37908
1546.0278,429.872,-4.38366
1546.1304,429.972,-4.3884
1546.2336,430.072,-4.39239
1546.3362,430.172,-4.39609
1546.4388,430.272,-4.39992
1546.542,430.372,-4.40401
1546.6452,430.472,-4.40826
1546.7484,430.572,-4.41223
1546.851,430.672,-4.41594
1546.9536,430.772,-4.41986
1547.0562,430.872,-4.42379
1547.1594,430.972,-4.42697
1547.262,431.072,-4.42974
1547.3646,431.172,-4.43333
1547.4672,431.272,-4.43734
1547.5692,431.372,-4.44038
1547.6718,431.472,-4.4429
1547.7744,431.572,-4.44636
1547.8776,431.672,-4.4508
1547.9802,431.772,-4.45548
1548.0828,431.872,-4.45978
1548.1854,431.972,-4.46329
1548.288,432.072,-4.46653
1548.3906,432.172,-4.47023
1548.4926,432.272,-4.47401
1548.5958,432.372,-4.47731
1548.6984,432.472,-4.48048
1548.8004,432.572,-4.48391
1548.9024,432.672,-4.48691
1549.005,432.772,-4.48901
1549.107,432.872,-4.49151
1549.209,432.972,-4.49551
1549.311,433.072,-4.50016
1549.4136,433.172,-4.50442
1549.5156,433.272,-4.5079
1549.6176,433.372,-4.51051
1549.7202,433.472,-4.51274
1549.8222,433.572,-4.51513
1549.9248,433.672,-4.51817
1550.0262,433.772,-4.52191
1550.1282,433.872,-4.52552
1550.2302,433.972,-4.52861
1550.3316,434.072,-4.53162
1550.433,434.172,-4.53502
1550.5344,434.272,-4.53905
1550.6364,434.372,-4.54366
1550.7378,434.472,-4.54835
1550.8398,434.572,-4.5527
1550.9418,434.672,-4.55646
1551.0438,434.772,-4.55964
1551.1452,434.872,-4.56264
1551.246,434.972,-4.56558
1551.3474,435.072,-4.56822
1551.45,435.172,-4.57067
1551.552,435.272,-4.57339
1551.6528,435.372,-4.57654
1551.7542,435.472,-4.57994
1551.855,435.572,-4.58346
1551.957,435.672,-4.58701
1552.0584,435.772,-4.59054
1552.1604,435.872,-4.59407
1552.2612,435.972,-4.59751
1552.3626,436.072,-4.60073
1552.4628,436.172,-4.60411
1552.5642,436.272,-4.60828
1552.6656,436.372,-4.61265
1552.7664,436.472,-4.6159
1552.8672,436.572,-4.61839
1552.968,436.672,-4.62149
1553.0688,436.772,-4.62539
1553.1696,436.872,-4.62958
1553.2698,436.972,-4.63368
1553.3706,437.072,-4.63748
1553.4708,437.172,-4.64094
1553.5722,437.272,-4.64412
1553.673,437.372,-4.64722
1553.7744,437.472,-4.65047
1553.8752,437.572,-4.65405
1553.976,437.672,-4.65807
1554.0768,437.772,-4.66218
1554.1782,437.872,-4.66582
1554.279,437.972,-4.66888
1554.3798,438.072,-4.67144
1554.4806,438.172,-4.67388
1554.5814,438.272,-4.67667
1554.6822,438.372,-4.67991
1554.7824,438.472,-4.68354
1554.8832,438.572,-4.68745
1554.9846,438.672,-4.6915
1555.0854,438.772,-4.69558
1555.1862,438.872,-4.69956
1555.2864,438.972,-4.70331
1555.3878,439.072,-4.70672
1555.4886,439.172,-4.71001
1555.59,439.272,-4.71344
1555.6908,439.372,-4.71691
1555.7916,439.472,-4.72025
1555.893,439.572,-4.72352
1555.9938,439.672,-4.72685
1556.0946,439.772,-4.73004
1556.1948,439.872,-4.7329
1556.2944,439.972,-4.73559
1556.394,440.072,-4.73841
1556.4942,440.172,-4.74173
1556.5938,440.272,-4.7458
1556.694,440.372,-4.74996
1556.7936,440.472,-4.75353
1556.8938,440.572,-4.75702
1556.994,440.672,-4.76102
1557.0942,440.772,-4.76508
1557.1938,440.872,-4.76861
1557.2934,440.972,-4.7719
1557.393,441.072,-4.77535
1557.4926,441.172,-4.77859
1557.5928,441.272,-4.78113
1557.6924,441.372,-4.7832
1557.792,441.472,-4.78527
1557.8916,441.572,-4.78803
1557.9912,441.672,-4.79198
1558.0908,441.772,-4.79622
1558.1904,441.872,-4.79967
1558.2894,441.972,-4.80288
1558.389,442.072,-4.80668
1558.488,442.172,-4.81064
1558.5876,442.272,-4.81405
1558.6866,442.372,-4.81715
1558.7862,442.472,-4.8204
1558.8858,442.572,-4.82337
1558.9854,442.672,-4.82557
1559.085,442.772,-4.82788
1559.1846,442.872,-4.83147
1559.2836,442.972,-4.83574
1559.3826,443.072,-4.83959
1559.4822,443.172,-4.84307
1559.5812,443.272,-4.84661
1559.6802,443.372,-4.8501
1559.7786,443.472,-4.85332
1559.877,443.572,-4.85659
1559.976,443.672,-4.86036
1560.0756,443.772,-4.86398
1560.1746,443.872,-4.86649
1560.273,443.972,-4.86858
1560.372,444.072,-4.87166
1560.471,444.172,-4.87561
1560.57,444.272,-4.87952
1560.6684,444.372,-4.88315
1560.7668,444.472,-4.88667
1560.8658,444.572,-4.89018
1560.9648,444.672,-4.89375
1561.0632,444.772,-4.89726
1561.1622,444.872,-4.90049
1561.2612,444.972,-4.90353
1561.3602,445.072,-4.90664
1561.4592,445.172,-4.90976
1561.5576,445.272,-4.9126
1561.656,445.372,-4.91521
1561.7544,445.472,-4.91792
1561.8534,445.572,-4.92085
1561.9518,445.672,-4.92388
1562.0502,445.772,-4.92688
1562.1486,445.872,-4.92966
1562.2476,445.972,-4.93231
1562.3466,446.072,-4.93516
1562.4456,446.172,-4.93834
1562.544,446.272,-4.94178
1562.6424,446.372,-4.94545
1562.7408,446.472,-4.94942
1562.8398,446.572,-4.9534
1562.9382,446.672,-4.95663
1563.036,446.772,-4.95916
1563.1344,446.872,-4.96203
1563.2328,446.972,-4.96561
1563.3312,447.072,-4.96913
1563.429,447.172,-4.97214
1563.5268,447.272,-4.97487
1563.6252,447.372,-4.97754
1563.723,447.472,-4.98023
1563.8208,447.572,-4.98308
1563.9186,447.672,-4.98638
1564.0164,447.772,-4.99018
1564.1148,447.872,-4.99393
1564.2126,447.972,-4.99727
1564.311,448.072,-5.0005
1564.4082,448.172,-5.00385
1564.506,448.272,-5.00704
1564.6038,448.372,-5.00986
1564.7022,448.472,-5.01283
1564.8006,448.572,-5.01634
1564.8984,448.672,-5.01983
1564.9962,448.772,-5.02284
1565.094,448.872,-5.02617
1565.1918,448.972,-5.03057
1565.2896,449.072,-5.035
1565.3874,449.172,-5.0382
1565.4852,449.272,-5.0407
1565.583,449.372,-5.04352
1565.6802,449.472,-5.04675
1565.778,449.572,-5.05016
1565.8752,449.672,-5.05364
1565.973,449.772,-5.05711
1566.0708,449.872,-5.06013
1566.1686,449.972,-5.06223
1566.2658,450.072,-5.06405
1566.3636,450.172,-5.06681
1566.4608,450.272,-5.07051
1566.558,450.372,-5.07431
1566.6552,450.472,-5.07785
1566.7524,450.572,-5.08116
1566.8496,450.672,-5.08433
1566.9468,450.772,-5.08756
1567.0446,450.872,-5.09087
1567.1418,450.972,-5.0941
1567.2384,451.072,-5.09716
1567.3356,451.172,-5.10012
1567.4328,451.272,-5.10306
1567.5294,451.372,-5.10615
1567.6266,451.472,-5.10949
1567.7232,451.572,-5.11305
1567.821,451.672,-5.11675
1567.9182,451.772,-5.1204
1568.0148,451.872,-5.12389
1568.112,451.972,-5.12739
1568.2092,452.072,-5.13093
1568.307,452.172,-5.1341
1568.4042,452.272,-5.13669
1568.5014,452.372,-5.13945
1568.5986,452.472,-5.14297
1568.6958,452.572,-5.14647
1568.7924,452.672,-5.14912
1568.8896,452.772,-5.15142
1568.9862,452.872,-5.15413
1569.0834,452.972,-5.15727
1569.1806,453.072,-5.16067
1569.2772,453.172,-5.16419
1569.3738,453.272,-5.16772
1569.4704,453.372,-5.1713
1569.567,453.472,-5.17495
1569.663,453.572,-5.17844
1569.7596,453.672,-5.18139
1569.8556,453.772,-5.18403
1569.9516,453.872,-5.18704
1570.0482,453.972,-5.19057
1570.1448,454.072,-5.19437
1570.2408,454.172,-5.19803
1570.3368,454.272,-5.20106
1570.4322,454.372,-5.2034
1570.5282,454.472,-5.20562
1570.6242,454.572,-5.2081
1570.7202,454.672,-5.21093
1570.8162,454.772,-5.21411
1570.9122,454.872,-5.21756
1571.0076,454.972,-5.22119
1571.103,455.072,-5.22489
1571.1978,455.172,-5.22849
1571.2932,455.272,-5.23173
1571.388,455.372,-5.23447
1571.4834,455.472,-5.23722
1571.5794,455.572,-5.24054
1571.6754,455.672,-5.2441
1571.7708,455.772,-5.24723
1571.8662,455.872,-5.24998
1571.9622,455.972,-5.25274
1572.0582,456.072,-5.25571
1572.1542,456.172,-5.25897
1572.2496,456.272,-5.26224
1572.345,456.372,-5.26499
1572.441,456.472,-5.26727
1572.537,456.572,-5.26979
1572.6324,456.672,-5.27278
1572.7278,456.772,-5.27577
1572.8232,456.872,-5.27851
1572.9186,456.972,-5.28115
1573.0146,457.072,-5.28391
1573.11,457.172,-5.28703
1573.2054,457.272,-5.29051
1573.3008,457.372,-5.2937
1573.3962,457.472,-5.29621
1573.4922,457.572,-5.29919
1573.5876,457.672,-5.30368
1573.683,457.772,-5.30836
1573.779,457.872,-5.31152
1573.8744,457.972,-5.31391
1573.9704,458.072,-5.31712
1574.0664,458.172,-5.32089
1574.1612,458.272,-5.32409
1574.2566,458.372,-5.32689
1574.3514,458.472,-5.33029
1574.4468,458.572,-5.33428
1574.5416,458.672,-5.33794
1574.6358,458.772,-5.34095
1574.7312,458.872,-5.34376
1574.826,458.972,-5.3467
1574.9214,459.072,-5.34985
1575.0162,459.172,-5.3531
1575.111,459.272,-5.35605
1575.2052,459.372,-5.35853
1575.3,459.472,-5.36115
1575.3948,459.572,-5.36447
1575.4902,459.672,-5.36823
1575.585,459.772,-5.37199
1575.6798,459.872,-5.37534
1575.7746,459.972,-5.37797
1575.8694,460.072,-5.38032
1575.9642,460.172,-5.38307
1576.0578,460.272,-5.38629
1576.1526,460.372,-5.38964
1576.2468,460.472,-5.39299
1576.341,460.572,-5.3964
1576.4352,460.672,-5.39992
1576.53,460.772,-5.40361
1576.6242,460.872,-5.40745
1576.719,460.972,-5.41129
1576.8126,461.072,-5.41498
1576.9068,461.172,-5.41851
1577.0016,461.272,-5.42184
1577.0958,461.372,-5.42498
1577.19,461.472,-5.42797
1577.2842,461.572,-5.43093
1577.379,461.672,-5.434
1577.4732,461.772,-5.4372
1577.5674,461.872,-5.44048
1577.6616,461.972,-5.44383
1577.7558,462.072,-5.44726
1577.8494,462.172,-5.45078
1577.9436,462.272,-5.45444
1578.0378,462.372,-5.45808
1578.132,462.472,-5.46135
1578.2262,462.572,-5.46414
1578.3198,462.672,-5.4667
1578.414,462.772,-5.46932
1578.5076,462.872,-5.47224
1578.6018,462.972,-5.47563
1578.696,463.072,-5.47935
1578.7902,463.172,-5.48323
1578.8844,463.272,-5.48725
1578.9786,463.372,-5.49141
1579.0722,463.472,-5.49547
1579.1664,463.572,-5.49916
1579.26,463.672,-5.50268
1579.3536,463.772,-5.50648
1579.4472,463.872,-5.51035
1579.5414,463.972,-5.51355
1579.6356,464.072,-5.5161
1579.7298,464.172,-5.51888
1579.8234,464.272,-5.5224
1579.9176,464.372,-5.52648
1580.0112,464.472,-5.53069
1580.1048,464.572,-5.53427
1580.1984,464.672,-5.53684
1580.2926,464.772,-5.53969
1580.3868,464.872,-5.544
1580.481,464.972,-5.54867
1580.5752,465.072,-5.55214
1580.6688,465.172,-5.55506
1580.7618,465.272,-5.55889
1580.8548,465.372,-5.56331
1580.9484,465.472,-5.56693
1581.042,465.572,-5.56969
1581.1356,465.672,-5.57284
1581.2292,465.772,-5.57676
1581.3228,465.872,-5.58063
1581.4158,465.972,-5.58402
1581.5094,466.072,-5.58753
1581.6024,466.172,-5.59155
1581.696,466.272,-5.59559
1581.7896,466.372,-5.59916
1581.8832,466.472,-5.60254
1581.9774,466.572,-5.60615
1582.071,466.672,-5.60977
1582.164,466.772,-5.61292
1582.257,466.872,-5.61575
1582.3506,466.972,-5.61877
1582.4436,467.072,-5.6222
1582.5366,467.172,-5.62599
1582.629,467.272,-5.62998
1582.722,467.372,-5.63381
1582.815,467.472,-5.6374
1582.908,467.572,-5.64111
1583.001,467.672,-5.64514
1583.0934,467.772,-5.64894
1583.1858,467.872,-5.65203
1583.2788,467.972,-5.65513
1583.3724,468.072,-5.65911
1583.466,468.172,-5.66321
1583.559,468.272,-5.66605
1583.652,468.372,-5.66804
1583.7444,468.472,-5.67085
1583.8368,468.572,-5.67481
1583.9298,468.672,-5.67886
1584.0222,468.772,-5.68251
1584.1152,468.872,-5.68626
1584.2076,468.972,-5.69042
1584.3006,469.072,-5.69457
1584.393,469.172,-5.69832
1584.4854,469.272,-5.70183
1584.5772,469.372,-5.70534
1584.6702,469.472,-5.70886
1584.7626,469.572,-5.71227
1584.855,469.672,-5.71569
1584.9474,469.772,-5.71935
1585.0404,469.872,-5.72315
1585.1328,469.972,-5.72674
1585.2252,470.072,-5.73003
1585.3176,470.172,-5.73341
1585.41,470.272,-5.73717
1585.5018,470.372,-5.74133
1585.5948,470.472,-5.74579
1585.6872,470.572,-5.75004
1585.7802,470.672,-5.75363
1585.8726,470.772,-5.75683
1585.965,470.872,-5.76019
1586.0568,470.972,-5.76376
1586.1486,471.072,-5.76734
1586.2404,471.172,-5.77087
1586.3328,471.272,-5.77437
1586.4252,471.372,-5.77775
1586.5176,471.472,-5.78072
1586.61,471.572,-5.78333
1586.7018,471.672,-5.78644
1586.7942,471.772,-5.79066
1586.886,471.872,-5.79525
1586.9784,471.972,-5.79924
1587.0708,472.072,-5.80247
1587.1632,472.172,-5.80512
1587.255,472.272,-5.8078
1587.3474,472.372,-5.81133
1587.4392,472.472,-5.81567
1587.531,472.572,-5.81994
1587.6228,472.672,-5.82365
1587.7152,472.772,-5.8269
1587.8076,472.872,-5.8299
1587.9,472.972,-5.83285
1587.9918,473.072,-5.83595
1588.0836,473.172,-5.83914
1588.1754,473.272,-5.84236
1588.2672,473.372,-5.84578
1588.359,473.472,-5.84968
1588.4502,473.572,-5.85396
1588.542,473.672,-5.85829
1588.6338,473.772,-5.86233
1588.7262,473.872,-5.86579
1588.818,473.972,-5.86875
1588.9098,474.072,-5.87191
1589.0016,474.172,-5.87575
1589.0928,474.272,-5.87993
1589.1846,474.372,-5.88401
1589.2764,474.472,-5.88777
1589.3688,474.572,-5.89111
1589.4612,474.672,-5.8942
1589.5524,474.772,-5.89731
1589.6436,474.872,-5.90048
1589.7348,474.972,-5.90354
1589.8266,475.072,-5.90665
1589.9178,475.172,-5.91047
1590.009,475.272,-5.91511
1590.1002,475.372,-5.91953
1590.192,475.472,-5.92285
1590.2838,475.572,-5.92565
1590.375,475.672,-5.92873
1590.4668,475.772,-5.93217
1590.558,475.872,-5.93571
1590.6492,475.972,-5.93931
1590.741,476.072,-5.94306
1590.8322,476.172,-5.94687
1590.9234,476.272,-5.95045
1591.0146,476.372,-5.95369
1591.1058,476.472,-5.95689
1591.197,476.572,-5.96024
1591.2882,476.672,-5.96358
1591.3794,476.772,-5.96672
1591.47,476.872,-5.96994
1591.5612,476.972,-5.97359
1591.6518,477.072,-5.97756
1591.743,477.172,-5.98141
1591.8348,477.272,-5.98493
1591.9254,477.372,-5.98811
1592.016,477.472,-5.99116
1592.1066,477.572,-5.99461
1592.1972,477.672,-5.99875
1592.289,477.772,-6.00293
1592.3802,477.872,-6.00648
1592.4714,477.972,-6.00967
1592.5626,478.072,-6.01306
1592.6532,478.172,-6.01685
1592.7438,478.272,-6.02096
1592.835,478.372,-6.02503
1592.9256,478.472,-6.02839
1593.0162,478.572,-6.03096
1593.1074,478.672,-6.03378
1593.198,478.772,-6.03757
1593.2886,478.872,-6.04157
1593.3798,478.972,-6.04501
1593.4704,479.072,-6.04832
1593.561,479.172,-6.05232
1593.6522,479.272,-6.05668
1593.7428,479.372,-6.06038
1593.8334,479.472,-6.06333
1593.9246,479.572,-6.06649
1594.0152,479.672,-6.0703
1594.1064,479.772,-6.07422
1594.1976,479.872,-6.07785
1594.2888,479.972,-6.08147
1594.3794,480.072,-6.08547
1594.47,480.172,-6.08966
1594.5606,480.272,-6.09369
1594.6512,480.372,-6.09733
1594.7424,480.472,-6.10043
1594.833,480.572,-6.1032
1594.9236,480.672,-6.10618
1595.0136,480.772,-6.10965
1595.1042,480.872,-6.11326
1595.1948,480.972,-6.11683
1595.2854,481.072,-6.12085
1595.3766,481.172,-6.12574
1595.4672,481.272,-6.13063
1595.5578,481.372,-6.13423
1595.6484,481.472,-6.13686
1595.739,481.572,-6.13991
1595.8296,481.672,-6.14368
1595.9202,481.772,-6.14722
1596.0108,481.872,-6.15007
1596.102,481.972,-6.15308
1596.1926,482.072,-6.15688
1596.2826,482.172,-6.1608
1596.3726,482.272,-6.16399
1596.4626,482.372,-6.16679
1596.5532,482.472,-6.17002
1596.6438,482.572,-6.17379
1596.7338,482.672,-6.17767
1596.8238,482.772,-6.18137
1596.9138,482.872,-6.18478
1597.0038,482.972,-6.18793
1597.0938,483.072,-6.19106
1597.1844,483.172,-6.19446
1597.2744,483.272,-6.19819
1597.365,483.372,-6.20227
1597.455,483.472,-6.20637
1597.545,483.572,-6.21
1597.6356,483.672,-6.21311
1597.7256,483.772,-6.21609
1597.8156,483.872,-6.21919
1597.9056,483.972,-6.22241
1597.9956,484.072,-6.22571
1598.085,484.172,-6.22908
1598.175,484.272,-6.23253
1598.2644,484.372,-6.23628
1598.3544,484.472,-6.2406
1598.4444,484.572,-6.24514
1598.5344,484.672,-6.24907
1598.6244,484.772,-6.25218
1598.7144,484.872,-6.25516
1598.8038,484.972,-6.25849
1598.8938,485.072,-6.26206
1598.9838,485.172,-6.2657
1599.0732,485.272,-6.26936
1599.1632,485.372,-6.27302
1599.2526,485.472,-6.27655
1599.3426,485.572,-6.27972
1599.432,485.672,-6.28263
1599.522,485.772,-6.28567
1599.6126,485.872,-6.28914
1599.702,485.972,-6.29302
1599.792,486.072,-6.2972
1599.8814,486.172,-6.30128
1599.9708,486.272,-6.3049
1600.0602,486.372,-6.30827
1600.1502,486.472,-6.31184
1600.2396,486.572,-6.31554
1600.3296,486.672,-6.31891
1600.419,486.772,-6.32192
1600.5084,486.872,-6.32528
1600.5984,486.972,-6.32947
1600.6878,487.072,-6.33392
1600.7778,487.172,-6.33802
1600.8672,487.272,-6.34171
1600.9566,487.372,-6.34517
1601.0454,487.472,-6.34858
1601.1348,487.572,-6.35218
1601.2236,487.672,-6.35604
1601.313,487.772,-6.36009
1601.403,487.872,-6.36419
1601.4924,487.972,-6.36811
1601.5824,488.072,-6.37165
1601.6718,488.172,-6.37494
1601.7618,488.272,-6.3782
1601.8512,488.372,-6.38154
1601.9406,488.472,-6.38495
1602.03,488.572,-6.38852
1602.1188,488.672,-6.3924
1602.2076,488.772,-6.39648
1602.297,488.872,-6.40004
1602.3864,488.972,-6.40261
1602.4764,489.072,-6.40494
1602.5658,489.172,-6.408
1602.6546,489.272,-6.41177
1602.744,489.372,-6.41568
1602.8328,489.472,-6.41937
1602.9222,489.572,-6.42264
1603.0116,489.672,-6.42562
1603.101,489.772,-6.42902
1603.1898,489.872,-6.43334
1603.2786,489.972,-6.438
1603.3674,490.072,-6.44228
1603.4568,490.172,-6.44619
1603.5462,490.272,-6.4501
1603.635,490.372,-6.454
1603.7244,490.472,-6.45752
1603.8132,490.572,-6.46062
1603.902,490.672,-6.46383
1603.9908,490.772,-6.46763
1604.0802,490.872,-6.47179
1604.169,490.972,-6.47595
1604.2572,491.072,-6.47975
1604.3466,491.172,-6.48283
1604.4354,491.272,-6.48555
1604.5248,491.372,-6.48888
1604.6136,491.472,-6.49322
1604.7024,491.572,-6.49783
1604.7912,491.672,-6.50201
1604.88,491.772,-6.50575
1604.9688,491.872,-6.50917
1605.057,491.972,-6.51246
1605.1458,492.072,-6.51584
1605.2346,492.172,-6.5196
1605.3234,492.272,-6.52416
1605.4116,492.372,-6.52937
1605.5004,492.472,-6.53409
1605.5886,492.572,-6.53748
1605.6768,492.672,-6.54034
1605.7662,492.772,-6.54372
1605.855,492.872,-6.54734
1605.9438,492.972,-6.55026
1606.0326,493.072,-6.55261
1606.1214,493.172,-6.5556
1606.2102,493.272,-6.55971
1606.299,493.372,-6.56378
1606.3878,493.472,-6.56687
1606.4766,493.572,-6.56968
1606.5648,493.672,-6.57319
1606.653,493.772,-6.57735
1606.7418,493.872,-6.58151
1606.8306,493.972,-6.58536
1606.9188,494.072,-6.58899
1607.0076,494.172,-6.59252
1607.0958,494.272,-6.5962
1607.1846,494.372,-6.60019
1607.2728,494.472,-6.60415
1607.3616,494.572,-6.60765
1607.4504,494.672,-6.61099
1607.5386,494.772,-6.61483
1607.6268,494.872,-6.61929
1607.715,494.972,-6.62379
1607.8038,495.072,-6.62791
1607.892,495.172,-6.63179
1607.9808,495.272,-6.6356
1608.0696,495.372,-6.63942
1608.1578,495.472,-6.64325
1608.2466,495.572,-6.64716
1608.3348,495.672,-6.65123
1608.423,495.772,-6.65544
1608.5118,495.872,-6.6597
1608.6,495.972,-6.66394
1608.6888,496.072,-6.66834
1608.777,496.172,-6.67304
1608.8652,496.272,-6.67789
1608.9534,496.372,-6.68264
1609.0416,496.472,-6.68708
1609.1298,496.572,-6.69104
1609.2186,496.672,-6.69455
1609.3068,496.772,-6.69801
1609.395,496.872,-6.70167
1609.4826,496.972,-6.70534
1609.5708,497.072,-6.7088
1609.659,497.172,-6.71248
1609.7472,497.272,-6.71704
1609.8348,497.372,-6.72238
1609.9224,497.472,-6.72768
1610.01,497.572,-6.7324
1610.0982,497.672,-6.73657
1610.1864,497.772,-6.74037
1610.274,497.872,-6.74421
1610.3622,497.972,-6.74852
1610.4504,498.072,-6.75309
1610.5386,498.172,-6.75736
1610.6268,498.272,-6.76113
1610.7144,498.372,-6.76468
1610.8026,498.472,-6.76825
1610.8908,498.572,-6.7719
1610.9784,498.672,-6.77567
1611.0654,498.772,-6.77956
1611.153,498.872,-6.78354
1611.2406,498.972,-6.78776
1611.3282,499.072,-6.79243
1611.4158,499.172,-6.7975
1611.504,499.272,-6.80243
1611.5922,499.372,-6.80683
1611.6798,499.472,-6.81087
1611.7674,499.572,-6.81486
1611.855,499.672,-6.81896
1611.9426,499.772,-6.82326
1612.0308,499.872,-6.82778
1612.1184,499.972,-6.83243
1612.206,500.072,-6.8371
1612.293,500.172,-6.84161
1612.3806,500.272,-6.84578
1612.4688,500.372,-6.84959
1612.5564,500.472,-6.85309
1612.644,500.572,-6.85654
1612.731,500.672,-6.86035
1612.8192,500.772,-6.86463
1612.9068,500.872,-6.86914
1612.9944,500.972,-6.87364
1613.082,501.072,-6.87798
1613.169,501.172,-6.88209
1613.256,501.272,-6.88614
1613.3436,501.372,-6.8904
1613.4312,501.472,-6.89476
1613.5188,501.572,-6.89871
1613.6064,501.672,-6.9021
1613.694,501.772,-6.90553
1613.7816,501.872,-6.9096
1613.8686,501.972,-6.91442
1613.9562,502.072,-6.91992
1614.0432,502.172,-6.92551
1614.1302,502.272,-6.9303
1614.2178,502.372,-6.93403
1614.3054,502.472,-6.93752
1614.3924,502.572,-6.94141
1614.48,502.672,-6.94557
1614.567,502.772,-6.94978
1614.654,502.872,-6.95406
1614.7416,502.972,-6.95859
1614.8286,503.072,-6.96323
1614.9162,503.172,-6.96747
1615.0038,503.272,-6.97113
1615.0908,503.372,-6.9747
1615.1784,503.472,-6.97868
1615.266,503.572,-6.98289
1615.353,503.672,-6.98696
1615.4394,503.772,-6.99085
1615.5264,503.872,-6.99474
1615.6134,503.972,-6.9988
1615.7004,504.072,-7.00301
1615.788,504.172,-7.00734
1615.875,504.272,-7.01168
1615.962,504.372,-7.01588
1616.049,504.472,-7.01997
1616.136,504.572,-7.02405
1616.2236,504.672,-7.02818
1616.3106,504.772,-7.03229
1616.3982,504.872,-7.03631
1616.4852,504.972,-7.04003
1616.5722,505.072,-7.04334
1616.6598,505.172,-7.04679
1616.7468,505.272,-7.05114
1616.8338,505.372,-7.05629
1616.9208,505.472,-7.06139
1617.0072,505.572,-7.06587
1617.0942,505.672,-7.06988
1617.1812,505.772,-7.07367
1617.2676,505.872,-7.0775
1617.3546,505.972,-7.08166
1617.4416,506.072,-7.08602
1617.5286,506.172,-7.09021
1617.6156,506.272,-7.09416
1617.7026,506.372,-7.0983
1617.7896,506.472,-7.10289
1617.8766,506.572,-7.1074
1617.9642,506.672,-7.11119
1618.0512,506.772,-7.11463
1618.1388,506.872,-7.11862
1618.2252,506.972,-7.12336
1618.3122,507.072,-7.12824
1618.3986,507.172,-7.13281
1618.485,507.272,-7.13706
1618.572,507.372,-7.14105
1618.659,507.472,-7.14483
1618.7454,507.572,-7.14846
1618.8318,507.672,-7.1521
1618.9182,507.772,-7.15603
1619.0046,507.872,-7.16035
1619.091,507.972,-7.16469
1619.1774,508.072,-7.16872
1619.2638,508.172,-7.17257
1619.3502,508.272,-7.17655
1619.4366,508.372,-7.18065
1619.5236,508.472,-7.18461
1619.61,508.572,-7.18843
1619.697,508.672,-7.19251
1619.7834,508.772,-7.19716
1619.8698,508.872,-7.20194
1619.9562,508.972,-7.20628
1620.0426,509.072,-7.21023
1620.129,509.172,-7.21423
1620.2148,509.272,-7.21842
1620.3006,509.372,-7.22244
1620.387,509.472,-7.22609
1620.4728,509.572,-7.22978
1620.5586,509.672,-7.23403
1620.645,509.772,-7.23879
1620.7308,509.872,-7.2436
1620.8166,509.972,-7.24815
1620.903,510.072,-7.25224
1620.9894,510.172,-7.25587
1621.0758,510.272,-7.25951
1621.1616,510.372,-7.26366
1621.248,510.472,-7.26809
1621.3344,510.572,-7.27218
1621.4208,510.672,-7.27578
1621.5072,510.772,-7.27941
1621.5936,510.872,-7.28353
1621.6794,510.972,-7.28816
1621.7658,511.072,-7.29321
1621.8516,511.172,-7.29809
1621.9374,511.272,-7.30196
1622.0232,511.372,-7.3049
1622.1096,511.472,-7.30801
1622.1954,511.572,-7.31206
1622.2812,511.672,-7.3166
1622.367,511.772,-7.32104
1622.4534,511.872,-7.32533
1622.5398,511.972,-7.3296
1622.6262,512.072,-7.33382
1622.7126,512.172,-7.33773
1622.7984,512.272,-7.34125
1622.8848,512.372,-7.34482
1622.9712,512.472,-7.34889
1623.0576,512.572,-7.35325
1623.144,512.672,-7.35742
1623.2298,512.772,-7.36126
1623.3162,512.872,-7.36494
1623.4026,512.972,-7.36861
1623.489,513.072,-7.3723
1623.5748,513.172,-7.37605
1623.6606,513.272,-7.37988
1623.7458,513.372,-7.38383
1623.8316,513.472,-7.38786
1623.9174,513.572,-7.39188
1624.0032,513.672,-7.3959
1624.089,513.772,-7.40016
1624.1754,513.872,-7.40486
1624.2612,513.972,-7.40971
1624.3476,514.072,-7.4143
1624.4334,514.172,-7.41861
1624.5192,514.272,-7.42289
1624.605,514.372,-7.42725
1624.6908,514.472,-7.43137
1624.7766,514.572,-7.43497
1624.863,514.672,-7.43837
1624.9482,514.772,-7.44207
1625.034,514.872,-7.446
1625.1192,514.972,-7.44966
1625.205,515.072,-7.4528
1625.2908,515.172,-7.45573
1625.376,515.272,-7.45883
1625.4618,515.372,-7.46225
1625.547,515.472,-7.4661
1625.6322,515.572,-7.47026
1625.718,515.672,-7.47445
1625.8032,515.772,-7.47842
1625.889,515.872,-7.48213
1625.9742,515.972,-7.48559
1626.06,516.072,-7.48912
1626.1458,516.172,-7.49313
1626.231,516.272,-7.49755
1626.3168,516.372,-7.50187
1626.4026,516.472,-7.50575
1626.4884,516.572,-7.50932
1626.5736,516.672,-7.51277
1626.6594,516.772,-7.51655
1626.7446,516.872,-7.52111
1626.8298,516.972,-7.52612
1626.915,517.072,-7.53049
1627.0002,517.172,-7.53368
1627.0854,517.272,-7.53651
1627.1706,517.372,-7.53984
1627.2558,517.472,-7.54362
1627.341,517.572,-7.54741
1627.4262,517.672,-7.55116
1627.5114,517.772,-7.55522
1627.5972,517.872,-7.5597
1627.683,517.972,-7.56399
1627.7682,518.072,-7.56748
1627.8534,518.172,-7.57051
1627.9386,518.272,-7.5738
1628.0244,518.372,-7.57747
1628.1096,518.472,-7.58101
1628.1948,518.572,-7.58405
1628.28,518.672,-7.58682
1628.3652,518.772,-7.58961
1628.4504,518.872,-7.59261
1628.5356,518.972,-7.59598
1628.6208,519.072,-7.59961
1628.706,519.172,-7.60313
1628.7912,519.272,-7.60632
1628.8764,519.372,-7.60955
1628.9616,519.472,-7.61327
1629.0462,519.572,-7.61724
1629.1308,519.672,-7.62088
1629.216,519.772,-7.62412
1629.3006,519.872,-7.62761
1629.3858,519.972,-7.63181
1629.471,520.072,-7.63627
1629.5556,520.172,-7.64033
1629.6402,520.272,-7.64384
1629.7254,520.372,-7.64698
1629.81,520.472,-7.65004
1629.8952,520.572,-7.65342
1629.9804,520.672,-7.65738
1630.065,520.772,-7.66141
1630.1502,520.872,-7.6648
1630.2348,520.972,-7.66769
1630.32,521.072,-7.67083
1630.4046,521.172,-7.67458
1630.4898,521.272,-7.67845
1630.5744,521.372,-7.68195
1630.6596,521.472,-7.68524
1630.7448,521.572,-7.68869
1630.8294,521.672,-7.69229
1630.9146,521.772,-7.69563
1630.9992,521.872,-7.69855
1631.0838,521.972,-7.70151
1631.1684,522.072,-7.70498
1631.253,522.172,-7.70884
1631.3376,522.272,-7.71268
1631.4222,522.372,-7.71634
1631.5068,522.472,-7.71986
1631.592,522.572,-7.72326
1631.6766,522.672,-7.72636
1631.7618,522.772,-7.729
1631.8464,522.872,-7.73161
1631.931,522.972,-7.7349
1632.0162,523.072,-7.739
1632.1008,523.172,-7.74315
1632.1854,523.272,-7.74677
1632.2706,523.372,-7.75013
1632.3558,523.472,-7.7537
1632.4404,523.572,-7.75761
1632.5256,523.672,-7.76177
1632.6102,523.772,-7.7659
1632.6948,523.872,-7.7694
1632.7788,523.972,-7.77188
1632.8634,524.072,-7.77424
1632.948,524.172,-7.77766
1633.0326,524.272,-7.7821
1633.1178,524.372,-7.78646
1633.2018,524.472,-7.79004
1633.2864,524.572,-7.79311
1633.371,524.672,-7.79601
1633.4556,524.772,-7.79884
1633.5402,524.872,-7.80161
1633.6242,524.972,-7.80443
1633.7088,525.072,-7.80747
1633.7934,525.172,-7.81088
1633.8786,525.272,-7.81464
1633.9632,525.372,-7.81869
1634.0484,525.472,-7.82281
1634.1324,525.572,-7.82674
1634.217,525.672,-7.83047
1634.301,525.772,-7.83432
1634.3856,525.872,-7.8385
1634.4702,525.972,-7.84262
1634.5548,526.072,-7.84618
1634.6394,526.172,-7.84927
1634.724,526.272,-7.85241
1634.8086,526.372,-7.85587
1634.8932,526.472,-7.85949
1634.9772,526.572,-7.86312
1635.0618,526.672,-7.86667
1635.1464,526.772,-7.87013
1635.2304,526.872,-7.87362
1635.315,526.972,-7.87742
1635.4002,527.072,-7.88156
1635.4848,527.172,-7.88553
1635.5694,527.272,-7.88885
1635.6534,527.372,-7.8918
1635.7374,527.472,-7.89495
1635.8214,527.572,-7.89857
1635.906,527.672,-7.9025
1635.99,527.772,-7.90654
1636.0746,527.872,-7.91035
1636.1586,527.972,-7.91363
1636.2432,528.072,-7.91661
1636.3278,528.172,-7.91985
1636.4118,528.272,-7.92356
1636.4952,528.372,-7.92734
1636.5792,528.472,-7.93084
1636.6632,528.572,-7.93411
1636.7472,528.672,-7.93732
1636.8318,528.772,-7.94056
1636.9164,528.872,-7.94382
1637.0004,528.972,-7.94719
1637.0844,529.072,-7.95097
1637.1684,529.172,-7.95538
1637.2524,529.272,-7.95992
1637.3364,529.372,-7.9638
1637.421,529.472,-7.96698
1637.5056,529.572,-7.97031
1637.589,529.672,-7.97437
1637.6724,529.772,-7.97867
1637.7564,529.872,-7.98256
1637.8404,529.972,-7.98613
1637.9244,530.072,-7.9899
1638.0078,530.172,-7.99413
1638.0912,530.272,-7.99858
1638.1752,530.372,-8.00298
1638.2592,530.472,-8.0071
1638.3432,530.572,-8.01075
1638.4272,530.672,-8.01413
1638.5112,530.772,-8.01781
1638.5952,530.872,-8.02205
1638.6792,530.972,-8.02632
1638.7626,531.072,-8.03001
1638.8466,531.172,-8.03317
1638.93,531.272,-8.0362
1639.014,531.372,-8.03934
1639.098,531.472,-8.04263
1639.182,531.572,-8.04609
1639.266,531.672,-8.04986
1639.35,531.772,-8.05407
1639.434,531.872,-8.05867
1639.518,531.972,-8.06349
1639.6014,532.072,-8.06833
1639.6854,532.172,-8.07296
1639.7694,532.272,-8.07719
1639.8534,532.372,-8.0811
1639.9368,532.472,-8.08488
1640.0202,532.572,-8.08864
1640.1042,532.672,-8.09241
1640.1876,532.772,-8.09623
1640.2722,532.872,-8.10029
1640.3556,532.972,-8.10475
1640.4396,533.072,-8.10928
1640.523,533.172,-8.11326
1640.607,533.272,-8.11651
1640.691,533.372,-8.1196
1640.775,533.472,-8.12311
1640.8584,533.572,-8.12699
1640.9418,533.672,-8.13097
1641.0252,533.772,-8.13489
1641.1086,533.872,-8.13863
1641.192,533.972,-8.14219
1641.276,534.072,-8.14579
1641.3594,534.172,-8.14966
1641.4434,534.272,-8.1537
1641.5268,534.372,-8.15758
1641.6108,534.472,-8.16108
1641.6942,534.572,-8.16412
1641.7782,534.672,-8.16671
1641.8616,534.772,-8.16918
1641.945,534.872,-8.17195
1642.0284,534.972,-8.17509
1642.1118,535.072,-8.17839
1642.1952,535.172,-8.18163
1642.2786,535.272,-8.18469
1642.362,535.372,-8.1875
1642.4454,535.472,-8.19027
1642.5288,535.572,-8.19332
1642.6122,535.672,-8.19674
1642.6956,535.772,-8.20018
1642.779,535.872,-8.20335
1642.8624,535.972,-8.20622
1642.9458,536.072,-8.20886
1643.0286,536.172,-8.21149
1643.112,536.272,-8.21449
1643.1954,536.372,-8.21799
1643.2782,536.472,-8.2214
1643.3616,536.572,-8.22416
1643.4444,536.672,-8.22667
1643.5278,536.772,-8.22979
1643.6112,536.872,-8.2337
1643.6946,536.972,-8.23747
1643.7786,537.072,-8.2403
1643.862,537.172,-8.24259
1643.9448,537.272,-8.24504
1644.0282,537.372,-8.24789
1644.1116,537.472,-8.25092
1644.1944,537.572,-8.25397
1644.2778,537.672,-8.25701
1644.3612,537.772,-8.26004
1644.444,537.872,-8.26306
1644.5274,537.972,-8.26607
1644.6108,538.072,-8.26906
1644.6942,538.172,-8.272
1644.777,538.272,-8.27486
1644.8604,538.372,-8.27755
1644.9432,538.472,-8.28
1645.0266,538.572,-8.28237
1645.1094,538.672,-8.285
1645.1928,538.772,-8.28814
1645.2762,538.872,-8.2918
1645.3596,538.972,-8.29591
1645.443,539.072,-8.30039
1645.5264,539.172,-8.30513
1645.6098,539.272,-8.30999
1645.6932,539.372,-8.31481
1645.7766,539.472,-8.31946
1645.86,539.572,-8.32396
1645.9434,539.672,-8.32839
1646.0268,539.772,-8.33274
1646.1102,539.872,-8.33691
1646.1936,539.972,-8.34081
1646.2764,540.072,-8.34435
1646.3586,540.172,-8.34747
1646.442,540.272,-8.35025
1646.5248,540.372,-8.3529
1646.6076,540.472,-8.35561
1646.691,540.572,-8.35866
1646.7738,540.672,-8.36221
1646.8572,540.772,-8.36601
1646.9406,540.872,-8.36963
1647.0234,540.972,-8.37295
1647.1068,541.072,-8.37613
1647.189,541.172,-8.3793
1647.2718,541.272,-8.38231
1647.3546,541.372,-8.38501
1647.438,541.472,-8.38762
1647.5208,541.572,-8.39058
1647.6042,541.672,-8.39404
1647.687,541.772,-8.3975
1647.7704,541.872,-8.40048
1647.8532,541.972,-8.40304
1647.936,542.072,-8.40546
1648.0188,542.172,-8.40795
1648.1016,542.272,-8.41067
1648.1844,542.372,-8.41371
1648.2672,542.472,-8.41692
1648.3494,542.572,-8.4201
1648.4316,542.672,-8.42323
1648.5144,542.772,-8.42639
1648.5972,542.872,-8.42959
1648.68,542.972,-8.43256
1648.7634,543.072,-8.43503
1648.8468,543.172,-8.4373
1648.9296,543.272,-8.43993
1649.0124,543.372,-8.44311
1649.0952,543.472,-8.44655
1649.178,543.572,-8.44998
1649.2608,543.672,-8.45351
1649.3436,543.772,-8.45735
1649.4264,543.872,-8.46141
1649.5092,543.972,-8.46535
1649.592,544.072,-8.4689
1649.6748,544.172,-8.47211
1649.7576,544.272,-8.47508
1649.8404,544.372,-8.4778
1649.9232,544.472,-8.48021
1650.006,544.572,-8.48242
1650.0888,544.672,-8.48483
1650.1716,544.772,-8.48777
1650.2544,544.872,-8.49094
1650.3366,544.972,-8.49387
1650.4194,545.072,-8.49651
1650.5022,545.172,-8.49937
1650.585,545.272,-8.5028
1650.6672,545.372,-8.5064
1650.75,545.472,-8.50965
1650.8328,545.572,-8.51257
1650.9156,545.672,-8.51556
1650.999,545.772,-8.51885
1651.0824,545.872,-8.5222
1651.1652,545.972,-8.5254
1651.2474,546.072,-8.52871
1651.3296,546.172,-8.53258
1651.4124,546.272,-8.53692
1651.4952,546.372,-8.54083
1651.578,546.472,-8.54356
1651.6608,546.572,-8.54541
1651.743,546.672,-8.54699
1651.8258,546.772,-8.54868
1651.9086,546.872,-8.55064
1651.9908,546.972,-8.55299
1652.0736,547.072,-8.55571
1652.1558,547.172,-8.55875
1652.2386,547.272,-8.56173
1652.3208,547.372,-8.56409
1652.4042,547.472,-8.56578
1652.487,547.572,-8.56768
1652.5692,547.672,-8.57059
1652.652,547.772,-8.57405
1652.7342,547.872,-8.57709
1652.817,547.972,-8.57937
1652.8998,548.072,-8.58133
1652.9826,548.172,-8.58339
1653.0648,548.272,-8.58567
1653.1476,548.372,-8.58817
1653.2304,548.472,-8.59074
1653.3126,548.572,-8.59305
1653.3954,548.672,-8.59498
1653.4776,548.772,-8.5969
1653.5598,548.872,-8.59923
1653.642,548.972,-8.60195
1653.7242,549.072,-8.60483
1653.8064,549.172,-8.6077
1653.8886,549.272,-8.61056
1653.9708,549.372,-8.61337
1654.053,549.472,-8.61605
1654.1352,549.572,-8.61848
1654.218,549.672,-8.62074
1654.3002,549.772,-8.6231
1654.383,549.872,-8.62578
1654.4652,549.972,-8.62853
1654.5474,550.072,-8.63107
1654.6296,550.172,-8.63347
1654.7118,550.272,-8.63616
1654.794,550.372,-8.63938
1654.8762,550.472,-8.64289
1654.9584,550.572,-8.6464
1655.0412,550.672,-8.64981
1655.1234,550.772,-8.65317
1655.2056,550.872,-8.65649
1655.2872,550.972,-8.65985
1655.3694,551.072,-8.66328
1655.4516,551.172,-8.6667
1655.5338,551.272,-8.67
1655.616,551.372,-8.67303
1655.6982,551.472,-8.67561
1655.7798,551.572,-8.67763
1655.862,551.672,-8.67929
1655.9442,551.772,-8.68087
1656.0264,551.872,-8.68257
1656.1086,551.972,-8.6845
1656.1914,552.072,-8.68677
1656.2736,552.172,-8.68939
1656.3564,552.272,-8.69238
1656.4386,552.372,-8.69555
1656.5208,552.472,-8.69863
1656.603,552.572,-8.70142
1656.6858,552.672,-8.70394
1656.7674,552.772,-8.70621
1656.8496,552.872,-8.70833
1656.9318,552.972,-8.71042
1657.014,553.072,-8.71255
1657.0962,553.172,-8.71468
1657.1784,553.272,-8.71677
1657.2606,553.372,-8.71881
1657.3428,553.472,-8.72078
1657.425,553.572,-8.72276
1657.5072,553.672,-8.72491
1657.5894,553.772,-8.72728
1657.671,553.872,-8.7296
1657.7532,553.972,-8.73154
1657.836,554.072,-8.7333
1657.9182,554.172,-8.73539
1658.0004,554.272,-8.738
1658.082,554.372,-8.74053
1658.1642,554.472,-8.74238
1658.247,554.572,-8.74357
1658.3292,554.672,-8.7444
1658.4108,554.772,-8.74531
1658.493,554.872,-8.74691
1658.5752,554.972,-8.74965
1658.658,555.072,-8.75305
1658.7402,555.172,-8.75636
1658.8224,555.272,-8.75909
1658.9046,555.372,-8.76102
1658.9862,555.472,-8.76215
1659.0684,555.572,-8.76299
1659.1506,555.672,-8.76417
1659.2328,555.772,-8.76585
1659.315,555.872,-8.76786
1659.3972,555.972,-8.77005
1659.4794,556.072,-8.77233
1659.561,556.172,-8.77461
1659.6432,556.272,-8.77678
1659.7248,556.372,-8.77874
1659.807,556.472,-8.78048
1659.8892,556.572,-8.78216
1659.9708,556.672,-8.78393
1660.053,556.772,-8.78592
1660.1352,556.872,-8.78822
1660.2174,556.972,-8.79068
1660.299,557.072,-8.79285
1660.3812,557.172,-8.79448
1660.4628,557.272,-8.79616
1660.545,557.372,-8.79863
1660.6266,557.472,-8.80178
1660.7088,557.572,-8.80473
1660.7904,557.672,-8.80694
1660.872,557.772,-8.80886
1660.9542,557.872,-8.81109
1661.0364,557.972,-8.81359
1661.1186,558.072,-8.81588
1661.2002,558.172,-8.81775
1661.2824,558.272,-8.81952
1661.364,558.372,-8.82157
1661.4456,558.472,-8.82394
1661.5272,558.572,-8.82657
1661.6088,558.672,-8.82925
1661.691,558.772,-8.83158
1661.7726,558.872,-8.83324
1661.8548,558.972,-8.8345
1661.9364,559.072,-8.83586
1662.0174,559.172,-8.83751
1662.099,559.272,-8.83933
1662.1812,559.372,-8.84115
1662.2634,559.472,-8.84277
1662.345,559.572,-8.84396
1662.4272,559.672,-8.84489
1662.5088,559.772,-8.84604
1662.591,559.872,-8.84773
1662.6732,559.972,-8.8498
1662.7548,560.072,-8.85199
1662.837,560.172,-8.85414
1662.9186,560.272,-8.85614
1663.0002,560.372,-8.85801
1663.0818,560.472,-8.85998
1663.164,560.572,-8.86229
1663.2456,560.672,-8.86475
1663.3278,560.772,-8.86699
1663.4094,560.872,-8.8688
1663.491,560.972,-8.87022
1663.5726,561.072,-8.87134
1663.6542,561.172,-8.87237
1663.7358,561.272,-8.87356
1663.8174,561.372,-8.87504
1663.899,561.472,-8.87686
1663.9812,561.572,-8.87897
1664.0628,561.672,-8.88109
1664.1444,561.772,-8.8829
1664.226,561.872,-8.88438
1664.3076,561.972,-8.88577
1664.3892,562.072,-8.88728
1664.4708,562.172,-8.8889
1664.5524,562.272,-8.89059
1664.634,562.372,-8.8923
1664.7162,562.472,-8.89398
1664.7978,562.572,-8.89554
1664.88,562.672,-8.89682
1664.9616,562.772,-8.89769
1665.0432,562.872,-8.89834
1665.1242,562.972,-8.89915
1665.2058,563.072,-8.90035
1665.2868,563.172,-8.90182
1665.3684,563.272,-8.90344
1665.45,563.372,-8.90516
1665.5316,563.472,-8.9069
1665.6126,563.572,-8.90852
1665.6942,563.672,-8.90979
1665.7758,563.772,-8.91057
1665.8574,563.872,-8.91122
1665.9384,563.972,-8.91228
1666.02,564.072,-8.9138
1666.1016,564.172,-8.91536
1666.1832,564.272,-8.91664
1666.2642,564.372,-8.91778
1666.3458,564.472,-8.91905
1666.4268,564.572,-8.92044
1666.5078,564.672,-8.92171
1666.5894,564.772,-8.92277
1666.671,564.872,-8.92399
1666.7526,564.972,-8.92576
1666.8342,565.072,-8.92793
1666.9158,565.172,-8.92996
1666.9974,565.272,-8.93149
1667.0784,565.372,-8.9326
1667.16,565.472,-8.9334
1667.2422,565.572,-8.9341
1667.3238,565.672,-8.93492
1667.4048,565.772,-8.93596
1667.4864,565.872,-8.93705
1667.568,565.972,-8.93797
1667.649,566.072,-8.93827
1667.7306,566.172,-8.93739
1667.8122,566.272,-8.93543
1667.8944,566.372,-8.93335
1667.9754,566.472,-8.93203
1668.057,566.572,-8.93155
1668.1386,566.672,-8.93173
1668.2202,566.772,-8.93242
1668.3018,566.872,-8.93345
1668.3834,566.972,-8.93463
1668.465,567.072,-8.93574
1668.5466,567.172,-8.93657
1668.6282,567.272,-8.93724
1668.7098,567.372,-8.93812
1668.7914,567.472,-8.9394
1668.873,567.572,-8.9408
1668.9552,567.672,-8.94199
1669.0368,567.772,-8.94296
1669.1184,567.872,-8.94395
1669.2,567.972,-8.94512
1669.281,568.072,-8.94644
1669.3626,568.172,-8.94788
1669.4436,568.272,-8.94938
1669.5252,568.372,-8.95085
1669.6068,568.472,-8.95227
1669.6878,568.572,-8.95365
1669.7694,568.672,-8.95505
1669.851,568.772,-8.95645
1669.932,568.872,-8.95783
1670.013,568.972,-8.95926
1670.0946,569.072,-8.96086
1670.1756,569.172,-8.96273
1670.2572,569.272,-8.96467
1670.3388,569.372,-8.96637
1670.4198,569.472,-8.96772
1670.5008,569.572,-8.96881
1670.5824,569.672,-8.96976
1670.6634,569.772,-8.97081
1670.745,569.872,-8.9722
1670.826,569.972,-8.97396
1670.9076,570.072,-8.97589
1670.9886,570.172,-8.97788
1671.0696,570.272,-8.98009
1671.1506,570.372,-8.98267
1671.2322,570.472,-8.98543
1671.3132,570.572,-8.98792
1671.3948,570.672,-8.98995
1671.4758,570.772,-8.99206
1671.5568,570.872,-8.99482
1671.6384,570.972,-8.99799
1671.7194,571.072,-9.00084
1671.8004,571.172,-9.00295
1671.8814,571.272,-9.00454
1671.963,571.372,-9.0059
1672.044,571.472,-9.00718
1672.125,571.572,-9.00847
1672.206,571.672,-9.00985
1672.287,571.772,-9.01133
1672.368,571.872,-9.01291
1672.449,571.972,-9.01458
1672.5306,572.072,-9.01632
1672.6116,572.172,-9.01794
1672.6932,572.272,-9.0191
1672.7742,572.372,-9.01955
1672.8552,572.472,-9.01979
1672.9362,572.572,-9.02055
1673.0172,572.672,-9.02206
1673.0988,572.772,-9.02397
1673.1798,572.872,-9.02595
1673.2614,572.972,-9.02763
1673.343,573.072,-9.02871
1673.424,573.172,-9.0294
1673.505,573.272,-9.03038
1673.586,573.372,-9.03212
1673.6676,573.472,-9.03415
1673.7486,573.572,-9.03591
1673.8302,573.672,-9.03739
1673.9112,573.772,-9.03911
1673.9922,573.872,-9.04127
1674.0732,573.972,-9.04337
1674.1548,574.072,-9.04485
1674.2364,574.172,-9.04601
1674.3174,574.272,-9.04767
1674.3984,574.372,-9.05015
1674.4794,574.472,-9.05265
1674.5604,574.572,-9.05434
1674.642,574.672,-9.05535
1674.723,574.772,-9.05633
1674.804,574.872,-9.05741
1674.885,574.972,-9.05788
1674.966,575.072,-9.05711
1675.047,575.172,-9.05563
1675.1274,575.272,-9.05449
1675.2084,575.372,-9.05422
1675.2894,575.472,-9.05456
1675.3704,575.572,-9.05522
1675.4508,575.672,-9.05598
1675.5318,575.772,-9.05667
1675.6128,575.872,-9.0572
1675.6938,575.972,-9.05761
1675.7748,576.072,-9.05797
1675.8558,576.172,-9.05835
1675.9368,576.272,-9.05883
1676.0178,576.372,-9.0595
1676.0988,576.472,-9.06043
1676.1798,576.572,-9.06165
1676.2602,576.672,-9.06294
1676.3412,576.772,-9.06408
1676.4222,576.872,-9.065
1676.5026,576.972,-9.06583
1676.5836,577.072,-9.06674
1676.6646,577.172,-9.06796
1676.7456,577.272,-9.06971
1676.8266,577.372,-9.07173
1676.907,577.472,-9.07336
1676.9874,577.572,-9.07418
1677.0678,577.672,-9.07452
1677.1488,577.772,-9.07483
1677.2298,577.872,-9.07518
1677.3108,577.972,-9.07531
1677.3918,578.072,-9.07516
1677.4722,578.172,-9.07507
1677.5532,578.272,-9.07544
1677.6342,578.372,-9.07622
1677.7152,578.472,-9.07709
1677.7962,578.572,-9.07785
1677.8772,578.672,-9.07859
1677.9576,578.772,-9.07947
1678.0386,578.872,-9.08058
1678.1196,578.972,-9.08203
1678.2006,579.072,-9.08372
1678.2816,579.172,-9.08519
1678.3626,579.272,-9.08601
1678.4436,579.372,-9.08642
1678.5246,579.472,-9.087
1678.605,579.572,-9.08796
1678.686,579.672,-9.08894
1678.7664,579.772,-9.08957
1678.8474,579.872,-9.09007
1678.9278,579.972,-9.09088
1679.0082,580.072,-9.09212
1679.0892,580.172,-9.09339
1679.1702,580.272,-9.09434
1679.2512,580.372,-9.09503
1679.3316,580.472,-9.09571
1679.4126,580.572,-9.09662
1679.4936,580.672,-9.09804
1679.5746,580.772,-9.10013
1679.6556,580.872,-9.10251
1679.7366,580.972,-9.10461
1679.817,581.072,-9.10617
1679.898,581.172,-9.1073
1679.9784,581.272,-9.10809
1680.0594,581.372,-9.1086
1680.1398,581.472,-9.10885
1680.2208,581.572,-9.10907
1680.3012,581.672,-9.10964
1680.3816,581.772,-9.11076
1680.4626,581.872,-9.11187
1680.543,581.972,-9.11226
1680.624,582.072,-9.11202
1680.7044,582.172,-9.11198
1680.7854,582.272,-9.11267
1680.8658,582.372,-9.11347
1680.9462,582.472,-9.11358
1681.026,582.572,-9.11295
1681.1064,582.672,-9.11218
1681.1874,582.772,-9.11173
1681.2678,582.872,-9.11155
1681.3488,582.972,-9.11153
1681.4298,583.072,-9.11176
1681.5108,583.172,-9.11243
1681.5918,583.272,-9.11357
1681.6722,583.372,-9.11461
1681.7526,583.472,-9.11495
1681.8336,583.572,-9.11462
1681.914,583.672,-9.11409
1681.9944,583.772,-9.11376
1682.0754,583.872,-9.1138
1682.1558,583.972,-9.11435
1682.2368,584.072,-9.11527
1682.3178,584.172,-9.11625
1682.3982,584.272,-9.1171
1682.4792,584.372,-9.1179
1682.5596,584.472,-9.11875
1682.64,584.572,-9.1196
1682.7204,584.672,-9.12034
1682.8014,584.772,-9.12096
1682.883,584.872,-9.12167
1682.9634,584.972,-9.12267
1683.0444,585.072,-9.124
1683.1254,585.172,-9.12562
1683.2064,585.272,-9.12733
1683.2874,585.372,-9.12871
1683.3684,585.472,-9.12939
1683.4494,585.572,-9.12971
1683.5298,585.672,-9.13023
1683.6108,585.772,-9.13118
1683.6912,585.872,-9.13225
1683.7722,585.972,-9.13315
1683.8526,586.072,-9.1338
1683.933,586.172,-9.13418
1684.0134,586.272,-9.13444
1684.0938,586.372,-9.13487
1684.1742,586.472,-9.13569
1684.2546,586.572,-9.13651
1684.3356,586.672,-9.13682
1684.416,586.772,-9.13657
1684.4964,586.872,-9.13633
1684.5768,586.972,-9.13659
1684.6572,587.072,-9.13716
1684.7376,587.172,-9.13773
1684.818,587.272,-9.13823
1684.8984,587.372,-9.13896
1684.9788,587.472,-9.14005
1685.0598,587.572,-9.14103
1685.1402,587.672,-9.14131
1685.2212,587.772,-9.14099
1685.3022,587.872,-9.14089
1685.3832,587.972,-9.14159
1685.4636,588.072,-9.1427
1685.5434,588.172,-9.14366
1685.6238,588.272,-9.14436
1685.7048,588.372,-9.14509
1685.7852,588.472,-9.14604
1685.8656,588.572,-9.14681
1685.9466,588.672,-9.14698
1686.027,588.772,-9.14665
1686.1074,588.872,-9.14644
1686.1878,588.972,-9.14669
1686.2682,589.072,-9.14694
1686.3492,589.172,-9.14664
1686.4296,589.272,-9.14597
1686.51,589.372,-9.14567
1686.591,589.472,-9.14616
1686.672,589.572,-9.14694
1686.7524,589.672,-9.14738
1686.8334,589.772,-9.14749
1686.9138,589.872,-9.14766
1686.9942,589.972,-9.14815
1687.0746,590.072,-9.14878
1687.155,590.172,-9.14934
1687.236,590.272,-9.14974
1687.3164,590.372,-9.14996
1687.3968,590.472,-9.1501
1687.4772,590.572,-9.15049
1687.5582,590.672,-9.15142
1687.6386,590.772,-9.15259
1687.719,590.872,-9.15336
1687.7988,590.972,-9.15348
1687.8792,591.072,-9.15342
1687.9596,591.172,-9.1537
1688.0406,591.272,-9.15426
1688.121,591.372,-9.15475
1688.2014,591.472,-9.155
1688.2812,591.572,-9.15528
1688.3616,591.672,-9.15585
1688.442,591.772,-9.15665
1688.5224,591.872,-9.15749
1688.6028,591.972,-9.1582
1688.6832,592.072,-9.15876
1688.7636,592.172,-9.15914
1688.8434,592.272,-9.1594
1688.9238,592.372,-9.15966
1689.0048,592.472,-9.16002
1689.0852,592.572,-9.1606
1689.1656,592.672,-9.16147
1689.246,592.772,-9.16248
1689.3264,592.872,-9.16334
1689.4068,592.972,-9.16395
1689.4866,593.072,-9.16447
1689.5676,593.172,-9.16503
1689.648,593.272,-9.16534
1689.729,593.372,-9.165
1689.8094,593.472,-9.16399
1689.8898,593.572,-9.16294
1689.9702,593.672,-9.16241
1690.0506,593.772,-9.16235
1690.131,593.872,-9.1625
1690.2114,593.972,-9.16263
1690.2918,594.072,-9.1626
1690.3722,594.172,-9.16228
1690.4526,594.272,-9.16184
1690.533,594.372,-9.16151
1690.6134,594.472,-9.16136
1690.6938,594.572,-9.16125
1690.7742,594.672,-9.16104
1690.8546,594.772,-9.16059
1690.9344,594.872,-9.15979
1691.0148,594.972,-9.15875
1691.0952,595.072,-9.15789
1691.1756,595.172,-9.15752
1691.2554,595.272,-9.15742
1691.3358,595.372,-9.15723
1691.4168,595.472,-9.15681
1691.4972,595.572,-9.15624
1691.5776,595.672,-9.15563
1691.6574,595.772,-9.15505
1691.7378,595.872,-9.15457
1691.8182,595.972,-9.15408
1691.8986,596.072,-9.15335
1691.979,596.172,-9.15225
1692.0594,596.272,-9.15116
1692.1398,596.372,-9.15059
1692.2202,596.472,-9.1505
1692.3006,596.572,-9.15028
1692.381,596.672,-9.14947
1692.4614,596.772,-9.14839
1692.5418,596.872,-9.14749
1692.6222,596.972,-9.14685
1692.7026,597.072,-9.14619
1692.783,597.172,-9.14527
1692.8634,597.272,-9.14415
1692.9438,597.372,-9.14291
1693.0242,597.472,-9.14158
1693.1046,597.572,-9.14015
1693.185,597.672,-9.13866
1693.2654,597.772,-9.13749
1693.3458,597.872,-9.13703
1693.4262,597.972,-9.13706
1693.5066,598.072,-9.13687
1693.587,598.172,-9.13599
1693.668,598.272,-9.13474
1693.7478,598.372,-9.1336
1693.8282,598.472,-9.13266
1693.9086,598.572,-9.13175
1693.989,598.672,-9.13071
1694.0694,598.772,-9.12953
1694.1498,598.872,-9.12824
1694.2302,598.972,-9.12694
1694.3106,599.072,-9.12585
1694.391,599.172,-9.12504
1694.4708,599.272,-9.1242
1694.5512,599.372,-9.123
1694.6316,599.472,-9.12157
1694.712,599.572,-9.12033
1694.7924,599.672,-9.11944
1694.8728,599.772,-9.11835
1694.9526,599.872,-9.11647
1695.033,599.972,-9.11405
1695.1128,600.072,-9.11188
1695.1926,600.172,-9.11042
1695.273,600.272,-9.10922
1695.3528,600.372,-9.10775
1695.4332,600.472,-9.10604
1695.5136,600.572,-9.10445
1695.594,600.672,-9.10313
1695.6744,600.772,-9.10171
1695.7548,600.872,-9.09974
1695.8346,600.972,-9.09737
1695.915,601.072,-9.09506
1695.9954,601.172,-9.0931
1696.0758,601.272,-9.09136
1696.1562,601.372,-9.08967
1696.236,601.472,-9.0881
1696.3164,601.572,-9.08686
1696.3968,601.672,-9.08591
1696.4772,601.772,-9.08469
1696.5576,601.872,-9.08263
1696.6374,601.972,-9.07992
1696.7178,602.072,-9.07714
1696.7976,602.172,-9.07469
1696.878,602.272,-9.07255
1696.9584,602.372,-9.07062
1697.0382,602.472,-9.06869
1697.1186,602.572,-9.06649
1697.1984,602.672,-9.06388
1697.2788,602.772,-9.06104
1697.3592,602.872,-9.05815
1697.439,602.972,-9.0553
1697.5188,603.072,-9.05254
1697.5986,603.172,-9.04993
1697.6784,603.272,-9.04753
1697.7588,603.372,-9.04541
1697.8392,603.472,-9.04352
1697.919,603.572,-9.04174
1697.9994,603.672,-9.04002
1698.0792,603.772,-9.03841
1698.159,603.872,-9.03695
1698.2394,603.972,-9.0355
1698.3198,604.072,-9.03377
1698.4002,604.172,-9.03168
1698.4806,604.272,-9.02947
1698.5604,604.372,-9.02738
1698.6402,604.472,-9.02542
1698.72,604.572,-9.02342
1698.8004,604.672,-9.02133
1698.8808,604.772,-9.01917
1698.9612,604.872,-9.01698
1699.0416,604.972,-9.01476
1699.1214,605.072,-9.01245
1699.2018,605.172,-9.00999
1699.2828,605.272,-9.00726
1699.3632,605.372,-9.0042
1699.443,605.472,-9.0011
1699.5234,605.572,-8.99845
1699.6038,605.672,-8.99644
1699.6842,605.772,-8.99486
1699.7646,605.872,-8.99344
1699.845,605.972,-8.99186
1699.9254,606.072,-8.98979
1700.0052,606.172,-8.98711
1700.0856,606.272,-8.98405
1700.166,606.372,-8.98083
1700.2464,606.472,-8.97764
1700.3268,606.572,-8.97459
1700.4072,606.672,-8.97171
1700.487,606.772,-8.96881
1700.5674,606.872,-8.96572
1700.6478,606.972,-8.96231
1700.7282,607.072,-8.95851
1700.8086,607.172,-8.95445
1700.889,607.272,-8.95061
1700.9688,607.372,-8.94738
1701.0492,607.472,-8.9446
1701.129,607.572,-8.94189
1701.2094,607.672,-8.939
1701.2898,607.772,-8.9359
1701.3702,607.872,-8.93259
1701.45,607.972,-8.92916
1701.5304,608.072,-8.92571
1701.6108,608.172,-8.92231
1701.6918,608.272,-8.91896
1701.7716,608.372,-8.91568
1701.852,608.472,-8.9124
1701.9318,608.572,-8.90904
1702.0122,608.672,-8.90551
1702.092,608.772,-8.90162
1702.1718,608.872,-8.89726
1702.2522,608.972,-8.89268
1702.332,609.072,-8.88822
1702.4124,609.172,-8.88403
1702.4928,609.272,-8.87999
1702.5732,609.372,-8.87598
1702.6542,609.472,-8.87197
1702.7346,609.572,-8.86798
1702.815,609.672,-8.86404
1702.8954,609.772,-8.86022
1702.9758,609.872,-8.85653
1703.0562,609.972,-8.8527
1703.136,610.072,-8.8484
1703.2164,610.172,-8.84364
1703.2968,610.272,-8.83879
1703.3772,610.372,-8.8342
1703.457,610.472,-8.82995
1703.5374,610.572,-8.82605
1703.6178,610.672,-8.82228
1703.6982,610.772,-8.81819
1703.7786,610.872,-8.81345
1703.859,610.972,-8.80844
1703.9394,611.072,-8.80371
1704.0198,611.172,-8.79938
1704.1002,611.272,-8.79512
1704.1806,611.372,-8.79064
1704.261,611.472,-8.78582
1704.3414,611.572,-8.7806
1704.4218,611.672,-8.77516
1704.5022,611.772,-8.76995
1704.582,611.872,-8.76527
1704.6624,611.972,-8.76083
1704.7428,612.072,-8.75621
1704.8232,612.172,-8.75144
1704.9036,612.272,-8.74691
1704.984,612.372,-8.74287
1705.0644,612.472,-8.73895
1705.1442,612.572,-8.73468
1705.224,612.672,-8.73
1705.3044,612.772,-8.72524
1705.3848,612.872,-8.72068
1705.4646,612.972,-8.71624
1705.545,613.072,-8.71182
1705.6254,613.172,-8.70721
1705.7052,613.272,-8.70218
1705.7856,613.372,-8.69657
1705.866,613.472,-8.69061
1705.9464,613.572,-8.68461
1706.0262,613.672,-8.67873
1706.1066,613.772,-8.67301
1706.187,613.872,-8.66752
1706.2668,613.972,-8.6623
1706.3472,614.072,-8.65738
1706.427,614.172,-8.65259
1706.5074,614.272,-8.64758
1706.5878,614.372,-8.64218
1706.6676,614.472,-8.63666
1706.7474,614.572,-8.63139
1706.8272,614.672,-8.62646
1706.907,614.772,-8.62175
1706.9874,614.872,-8.6171
1707.0678,614.972,-8.61227
1707.1482,615.072,-8.60701
1707.228,615.172,-8.60131
1707.3084,615.272,-8.59528
1707.3882,615.372,-8.58906
1707.468,615.472,-8.58274
1707.5478,615.572,-8.57643
1707.6282,615.672,-8.57016
1707.7086,615.772,-8.56395
1707.789,615.872,-8.55779
1707.8688,615.972,-8.5517
1707.9492,616.072,-8.54566
1708.029,616.172,-8.5396
1708.1094,616.272,-8.53336
1708.1898,616.372,-8.52693
1708.2702,616.472,-8.5207
1708.35,616.572,-8.51507
1708.4298,616.672,-8.50981
1708.5102,616.772,-8.50417
1708.5906,616.872,-8.4977
1708.671,616.972,-8.49073
1708.7514,617.072,-8.48373
1708.8318,617.172,-8.47706
1708.9122,617.272,-8.47101
1708.9926,617.372,-8.46559
1709.0724,617.472,-8.46003
1709.1528,617.572,-8.45352
1709.2338,617.672,-8.44618
1709.3142,617.772,-8.43873
1709.3946,617.872,-8.43165
1709.475,617.972,-8.42487
1709.5548,618.072,-8.4182
1709.6352,618.172,-8.41157
1709.7156,618.272,-8.40492
1709.796,618.372,-8.39825
1709.8764,618.472,-8.3917
1709.9568,618.572,-8.3854
1710.0372,618.672,-8.37928
1710.1176,618.772,-8.37314
1710.198,618.872,-8.36685
1710.2784,618.972,-8.36038
1710.3588,619.072,-8.3537
1710.4392,619.172,-8.34697
1710.5196,619.272,-8.34045
1710.6,619.372,-8.33414
1710.6804,619.472,-8.32762
1710.7614,619.572,-8.3205
1710.8418,619.672,-8.31293
1710.9222,619.772,-8.30536
1711.0026,619.872,-8.29801
1711.083,619.972,-8.29071
1711.164,620.072,-8.28328
1711.2444,620.172,-8.27585
1711.3248,620.272,-8.26872
1711.4052,620.372,-8.26178
1711.4856,620.472,-8.25425
1711.566,620.572,-8.24549
1711.6464,620.672,-8.23612
1711.7268,620.772,-8.2273
1711.8072,620.872,-8.21955
1711.8876,620.972,-8.21242
1711.968,621.072,-8.2054
1712.0484,621.172,-8.19796
1712.1288,621.272,-8.18961
1712.2092,621.372,-8.18041
1712.2896,621.472,-8.17123
1712.37,621.572,-8.16287
1712.451,621.672,-8.15539
1712.532,621.772,-8.14858
1712.6124,621.872,-8.14197
1712.6928,621.972,-8.13479
1712.7732,622.072,-8.12644
1712.8536,622.172,-8.11739
1712.9334,622.272,-8.10842
1713.0138,622.372,-8.09991
1713.0942,622.472,-8.09167
1713.1746,622.572,-8.08349
1713.255,622.672,-8.07522
1713.3354,622.772,-8.06674
1713.4158,622.872,-8.05826
1713.4962,622.972,-8.05036
1713.5772,623.072,-8.0434
1713.6576,623.172,-8.03663
1713.738,623.272,-8.02899
1713.8178,623.372,-8.02029
1713.8982,623.472,-8.01122
1713.9786,623.572,-8.00238
1714.059,623.672,-7.99382
1714.1394,623.772,-7.98541
1714.2198,623.872,-7.97695
1714.3002,623.972,-7.96812
1714.3812,624.072,-7.95875
1714.4616,624.172,-7.94928
1714.542,624.272,-7.94026
1714.6224,624.372,-7.93168
1714.7028,624.472,-7.92305
1714.7832,624.572,-7.91402
1714.8636,624.672,-7.90507
1714.944,624.772,-7.89678
1715.0244,624.872,-7.88889
1715.1042,624.972,-7.88038
1715.1846,625.072,-7.87067
1715.265,625.172,-7.8607
1715.3454,625.272,-7.85166
1715.4258,625.372,-7.84347
1715.5068,625.472,-7.83495
1715.5872,625.572,-7.82535
1715.6682,625.672,-7.81542
1715.7486,625.772,-7.80611
1715.829,625.872,-7.79721
1715.9094,625.972,-7.78766
1715.9898,626.072,-7.77697
1716.0702,626.172,-7.76624
1716.1512,626.272,-7.75678
1716.2316,626.372,-7.7482
1716.312,626.472,-7.73898
1716.393,626.572,-7.72825
1716.4734,626.672,-7.71704
1716.5544,626.772,-7.70657
1716.6348,626.872,-7.69702
1716.7152,626.972,-7.68792
1716.7956,627.072,-7.67887
1716.8766,627.172,-7.66966
1716.957,627.272,-7.66008
1717.0374,627.372,-7.65003
1717.1178,627.472,-7.63949
1717.1988,627.572,-7.62859
1717.2798,627.672,-7.6179
1717.3602,627.772,-7.60794
1717.4406,627.872,-7.59837
1717.5216,627.972,-7.58845
1717.602,628.072,-7.57785
1717.683,628.172,-7.56705
1717.764,628.272,-7.55655
1717.845,628.372,-7.54636
1717.926,628.472,-7.53627
1718.007,628.572,-7.5262
1718.0874,628.672,-7.5163
1718.1678,628.772,-7.50668
1718.2482,628.872,-7.49713
1718.3286,628.972,-7.48731
1718.4096,629.072,-7.47711
1718.49,629.172,-7.46673
1718.571,629.272,-7.45639
1718.652,629.372,-7.44634
1718.7324,629.472,-7.43681
1718.8128,629.572,-7.42768
1718.8938,629.672,-7.4183
1718.9742,629.772,-7.40812
1719.0546,629.872,-7.39722
1719.135,629.972,-7.38588
1719.216,630.072,-7.37438
1719.2964,630.172,-7.363
1719.3774,630.272,-7.35194
1719.4578,630.372,-7.34107
1719.5388,630.472,-7.33014
1719.6198,630.572,-7.31899
1719.7002,630.672,-7.30749
1719.7806,630.772,-7.29559
1719.861,630.872,-7.28357
1719.942,630.972,-7.27179
1720.023,631.072,-7.26042
1720.1034,631.172,-7.2495
1720.1844,631.272,-7.239
1720.2648,631.372,-7.22873
1720.3452,631.472,-7.21845
1720.4262,631.572,-7.20803
1720.5066,631.672,-7.19738
1720.587,631.772,-7.18652
1720.668,631.872,-7.17569
1720.7484,631.972,-7.16517
1720.8294,632.072,-7.15485
1720.9104,632.172,-7.14431
1720.9914,632.272,-7.1333
1721.0724,632.372,-7.12196
1721.1528,632.472,-7.11046
1721.2332,632.572,-7.0989
1721.3142,632.672,-7.08725
1721.3946,632.772,-7.07557
1721.4762,632.872,-7.0641
1721.5572,632.972,-7.05304
1721.6376,633.072,-7.04213
1721.7186,633.172,-7.03081
1721.7996,633.272,-7.01888
1721.8806,633.372,-7.00683
1721.9616,633.472,-6.99518
1722.0426,633.572,-6.98399
1722.123,633.672,-6.97311
1722.204,633.772,-6.96242
1722.2844,633.872,-6.95189
1722.3654,633.972,-6.94146
1722.4464,634.072,-6.93085
1722.5274,634.172,-6.91969
1722.6078,634.272,-6.90801
1722.6888,634.372,-6.89647
1722.7698,634.472,-6.88564
1722.8508,634.572,-6.87513
1722.9318,634.672,-6.86422
1723.0128,634.772,-6.85271
1723.0932,634.872,-6.84116
1723.1742,634.972,-6.83
1723.2552,635.072,-6.81903
1723.3356,635.172,-6.80781
1723.4166,635.272,-6.7963
1723.497,635.372,-6.78493
1723.578,635.472,-6.77396
1723.659,635.572,-6.76303
1723.74,635.672,-6.75159
1723.8216,635.772,-6.73967
1723.9026,635.872,-6.72789
1723.9836,635.972,-6.71662
1724.064,636.072,-6.70543
1724.145,636.172,-6.69369
1724.226,636.272,-6.68146
1724.3076,636.372,-6.66938
1724.3886,636.472,-6.65786
1724.4696,636.572,-6.64656
1724.5506,636.672,-6.63501
1724.6322,636.772,-6.62309
1724.7132,636.872,-6.61091
1724.7942,636.972,-6.59861
1724.8758,637.072,-6.58636
1724.9568,637.172,-6.57429
1725.0378,637.272,-6.56231
1725.1188,637.372,-6.55016
1725.1998,637.472,-6.53775
1725.2808,637.572,-6.52527
1725.3624,637.672,-6.51295
1725.4434,637.772,-6.50089
1725.5244,637.872,-6.48911
1725.6054,637.972,-6.47753
1725.6858,638.072,-6.46591
1725.7668,638.172,-6.45402
1725.8484,638.272,-6.4419
1725.9294,638.372,-6.42971
1726.011,638.472,-6.41753
1726.0926,638.572,-6.40531
1726.1736,638.672,-6.39305
1726.2552,638.772,-6.38107
1726.3362,638.872,-6.36978
1726.4172,638.972,-6.35904
1726.4982,639.072,-6.3481
1726.5798,639.172,-6.33638
1726.6614,639.272,-6.32428
1726.7424,639.372,-6.31242
1726.8234,639.472,-6.30102
1726.9044,639.572,-6.28996
1726.9854,639.672,-6.27904
1727.0658,639.772,-6.26794
1727.1468,639.872,-6.25635
1727.2278,639.972,-6.24439
1727.3088,640.072,-6.23252
1727.3898,640.172,-6.22103
1727.4708,640.272,-6.20977
1727.5518,640.372,-6.19849
1727.6328,640.472,-6.18707
1727.7144,640.572,-6.17548
1727.7954,640.672,-6.16374
1727.877,640.772,-6.15197
1727.958,640.872,-6.14031
1728.039,640.972,-6.1286
1728.12,641.072,-6.1165
1728.2016,641.172,-6.10411
1728.2832,641.272,-6.09223
1728.3648,641.372,-6.08161
1728.4464,641.472,-6.07178
1728.5274,641.572,-6.06171
1728.6084,641.672,-6.05096
1728.6894,641.772,-6.03995
1728.771,641.872,-6.02912
1728.8526,641.972,-6.01846
1728.9336,642.072,-6.00779
1729.0152,642.172,-5.99696
1729.0962,642.272,-5.98578
1729.1772,642.372,-5.97417
1729.2582,642.472,-5.96247
1729.3392,642.572,-5.95111
1729.4208,642.672,-5.94029
1729.5024,642.772,-5.92999
1729.5834,642.872,-5.92006
1729.665,642.972,-5.91
1729.746,643.072,-5.89929
1729.8276,643.172,-5.88799
1729.9092,643.272,-5.87669
1729.9908,643.372,-5.8657
1730.0724,643.472,-5.85456
1730.154,643.572,-5.84272
1730.235,643.672,-5.83053
1730.316,643.772,-5.81893
1730.3976,643.872,-5.80834
1730.4792,643.972,-5.79805
1730.5602,644.072,-5.78726
1730.6412,644.172,-5.77575
1730.7222,644.272,-5.76359
1730.8032,644.372,-5.75099
1730.8842,644.472,-5.73841
1730.9652,644.572,-5.72629
1731.0468,644.672,-5.71457
1731.1278,644.772,-5.70295
1731.2094,644.872,-5.69134
1731.291,644.972,-5.67989
1731.372,645.072,-5.6687
1731.453,645.172,-5.65747
1731.534,645.272,-5.64579
1731.615,645.372,-5.63362
1731.6966,645.472,-5.62146
1731.7776,645.572,-5.60971
1731.8592,645.672,-5.5983
1731.9402,645.772,-5.58705
1732.0218,645.872,-5.57567
1732.1028,645.972,-5.56381
1732.1844,646.072,-5.55129
1732.2654,646.172,-5.53863
1732.347,646.272,-5.52643
1732.428,646.372,-5.51467
1732.5096,646.472,-5.50278
1732.5906,646.572,-5.49051
1732.6722,646.672,-5.47849
1732.7538,646.772,-5.46741
1732.8348,646.872,-5.45702
1732.9164,646.972,-5.44641
1732.998,647.072,-5.43499
1733.079,647.172,-5.42288
1733.1606,647.272,-5.41029
1733.2422,647.372,-5.39782
1733.3244,647.472,-5.38619
1733.406,647.572,-5.37558
1733.4876,647.672,-5.36516
1733.5692,647.772,-5.35417
1733.6508,647.872,-5.34272
1733.7318,647.972,-5.33127
1733.8134,648.072,-5.32001
1733.895,648.172,-5.30874
1733.976,648.272,-5.2973
1734.0576,648.372,-5.28564
1734.1392,648.472,-5.27376
1734.2208,648.572,-5.26177
1734.303,648.672,-5.24985
1734.3846,648.772,-5.23819
1734.4662,648.872,-5.22695
1734.5478,648.972,-5.21627
1734.6294,649.072,-5.20582
1734.711,649.172,-5.19492
1734.7926,649.272,-5.1832
1734.8742,649.372,-5.17114
1734.9558,649.472,-5.15932
1735.0374,649.572,-5.14784
1735.1184,649.672,-5.13649
1735.2,649.772,-5.1252
1735.2822,649.872,-5.11411
1735.3638,649.972,-5.10337
1735.4454,650.072,-5.09285
1735.5276,650.172,-5.0823
1735.6092,650.272,-5.07154
1735.6908,650.372,-5.06048
1735.7724,650.472,-5.04911
1735.8546,650.572,-5.03767
1735.9362,650.672,-5.0265
1736.0178,650.772,-5.01563
1736.1,650.872,-5.00476
1736.1816,650.972,-4.99364
1736.2638,651.072,-4.98222
1736.346,651.172,-4.97053
1736.4276,651.272,-4.95861
1736.5098,651.372,-4.94651
1736.5914,651.472,-4.93429
1736.6736,651.572,-4.92205
1736.7552,651.672,-4.90987
1736.8374,651.772,-4.89774
1736.919,651.872,-4.88556
1737.0012,651.972,-4.87331
1737.0828,652.072,-4.86107
1737.165,652.172,-4.84895
1737.2466,652.272,-4.83682
1737.3288,652.372,-4.82451
1737.4104,652.472,-4.81196
1737.492,652.572,-4.79937
1737.5742,652.672,-4.78686
1737.6564,652.772,-4.77418
1737.7386,652.872,-4.76101
1737.8202,652.972,-4.74769
1737.9018,653.072,-4.73529
1737.9834,653.172,-4.72454
1738.065,653.272,-4.71469
1738.1472,653.372,-4.70471
1738.2288,653.472,-4.69432
1738.3104,653.572,-4.68393
1738.392,653.672,-4.67377
1738.4742,653.772,-4.66368
1738.5558,653.872,-4.6534
1738.638,653.972,-4.64285
1738.7196,654.072,-4.63203
1738.8012,654.172,-4.621
1738.8828,654.272,-4.60991
1738.965,654.372,-4.59892
1739.0466,654.472,-4.58832
1739.1288,654.572,-4.57841
1739.2104,654.672,-4.56901
1739.2926,654.772,-4.55917
1739.3742,654.872,-4.54809
1739.4564,654.972,-4.53603
1739.538,655.072,-4.52356
1739.6196,655.172,-4.5112
1739.7012,655.272,-4.49936
1739.7834,655.372,-4.48826
1739.8656,655.472,-4.47726
1739.9478,655.572,-4.46559
1740.03,655.672,-4.45329
1740.1122,655.772,-4.44111
1740.1938,655.872,-4.42949
1740.276,655.972,-4.41813
1740.3576,656.072,-4.40664
1740.4398,656.172,-4.39504
1740.522,656.272,-4.38359
1740.6048,656.372,-4.37255
1740.687,656.472,-4.36226
1740.7692,656.572,-4.35284
1740.8514,656.672,-4.34332
1740.9336,656.772,-4.33227
1741.0158,656.872,-4.31957
1741.098,656.972,-4.3067
1741.1802,657.072,-4.29491
1741.2624,657.172,-4.28405
1741.3446,657.272,-4.27358
1741.4262,657.372,-4.26295
1741.5084,657.472,-4.25158
1741.5906,657.572,-4.23921
1741.6734,657.672,-4.2266
1741.7556,657.772,-4.2146
1741.8384,657.872,-4.20311
1741.9206,657.972,-4.19142
1742.0028,658.072,-4.17913
1742.085,658.172,-4.16654
1742.1672,658.272,-4.15397
1742.25,658.372,-4.14161
1742.3322,658.472,-4.1296
1742.4138,658.572,-4.11796
1742.496,658.672,-4.10657
1742.5782,658.772,-4.09533
1742.6604,658.872,-4.08435
1742.7432,658.972,-4.07379
1742.826,659.072,-4.06369
1742.9082,659.172,-4.05396
1742.991,659.272,-4.04435
1743.0732,659.372,-4.03407
1743.1548,659.472,-4.02234
1743.237,659.572,-4.00982
1743.3192,659.672,-3.99802
1743.4014,659.772,-3.98763
1743.4836,659.872,-3.9776
1743.5664,659.972,-3.96679
1743.6486,660.072,-3.9552
1743.7308,660.172,-3.94332
1743.8136,660.272,-3.93159
1743.8958,660.372,-3.92046
1743.9786,660.472,-3.91018
1744.0608,660.572,-3.90019
1744.143,660.672,-3.88975
1744.2252,660.772,-3.87858
1744.3074,660.872,-3.86691
1744.3896,660.972,-3.85504
1744.4718,661.072,-3.84346
1744.554,661.172,-3.83262
1744.6368,661.272,-3.82245
1744.719,661.372,-3.81245
1744.8012,661.472,-3.80237
1744.884,661.572,-3.79232
1744.9668,661.672,-3.78247
1745.0496,661.772,-3.7729
1745.1324,661.872,-3.76366
1745.2146,661.972,-3.75466
1745.2968,662.072,-3.74566
1745.379,662.172,-3.73641
1745.4612,662.272,-3.72691
1745.544,662.372,-3.71719
1745.6262,662.472,-3.7073
1745.709,662.572,-3.69737
1745.7918,662.672,-3.68744
1745.874,662.772,-3.67743
1745.9568,662.872,-3.66725
1746.039,662.972,-3.65707
1746.1218,663.072,-3.64726
1746.2046,663.172,-3.63807
1746.2868,663.272,-3.62959
1746.3696,663.372,-3.62179
1746.4524,663.472,-3.61398
1746.5352,663.572,-3.60521
1746.6174,663.672,-3.59556
1746.7002,663.772,-3.58635
1746.783,663.872,-3.57852
1746.8658,663.972,-3.57113
1746.9486,664.072,-3.56284
1747.0314,664.172,-3.55359
1747.1142,664.272,-3.54429
1747.197,664.372,-3.53557
1747.2804,664.472,-3.5273
1747.3632,664.572,-3.51922
1747.446,664.672,-3.51107
1747.5288,664.772,-3.5026
1747.6116,664.872,-3.49382
1747.6938,664.972,-3.48516
1747.7766,665.072,-3.47697
1747.8594,665.172,-3.46911
1747.9422,665.272,-3.46128
1748.025,665.372,-3.45338
1748.1078,665.472,-3.44547
1748.1906,665.572,-3.43767
1748.2734,665.672,-3.43019
1748.3562,665.772,-3.42324
1748.439,665.872,-3.41665
1748.5218,665.972,-3.41005
1748.6052,666.072,-3.40321
1748.688,666.172,-3.39625
1748.7708,666.272,-3.38928
1748.8542,666.372,-3.38241
1748.937,666.472,-3.37571
1749.0204,666.572,-3.3692
1749.1032,666.672,-3.36284
1749.1866,666.772,-3.35652
1749.2694,666.872,-3.34999
1749.3528,666.972,-3.34302
1749.4362,667.072,-3.33602
1749.519,667.172,-3.32986
1749.6018,667.272,-3.32486
1749.6846,667.372,-3.32019
1749.7674,667.472,-3.31499
1749.8508,667.572,-3.30921
1749.9336,667.672,-3.30317
1750.0164,667.772,-3.29718
1750.0992,667.872,-3.29157
1750.1826,667.972,-3.28649
1750.266,668.072,-3.28139
1750.3494,668.172,-3.27563
1750.4322,668.272,-3.26925
1750.5156,668.372,-3.26287
1750.5984,668.472,-3.25688
1750.6818,668.572,-3.25113
1750.7652,668.672,-3.24541
1750.848,668.772,-3.23973
1750.9314,668.872,-3.23419
1751.0148,668.972,-3.22898
1751.0982,669.072,-3.22443
1751.181,669.172,-3.22073
1751.2644,669.272,-3.21755
1751.3472,669.372,-3.2144
1751.4306,669.472,-3.21112
1751.5134,669.572,-3.20773
1751.5968,669.672,-3.20428
1751.6796,669.772,-3.20077
1751.763,669.872,-3.19717
1751.847,669.972,-3.19345
1751.9304,670.072,-3.18956
1752.0132,670.172,-3.18548
1752.0966,670.272,-3.18127
1752.18,670.372,-3.17699
1752.2634,670.472,-3.17286
1752.3468,670.572,-3.16908
1752.4296,670.672,-3.16549
1752.513,670.772,-3.1616
1752.5964,670.872,-3.15716
1752.6798,670.972,-3.15245
1752.7632,671.072,-3.14784
1752.846,671.172,-3.14349
1752.9288,671.272,-3.13953
1753.0122,671.372,-3.13591
1753.0956,671.472,-3.13235
1753.179,671.572,-3.12868
1753.2624,671.672,-3.12506
1753.3452,671.772,-3.12176
1753.4286,671.872,-3.11873
1753.5114,671.972,-3.11563
1753.5948,672.072,-3.11216
1753.6782,672.172,-3.10808
1753.7616,672.272,-3.10325
1753.8444,672.372,-3.09812
1753.9278,672.472,-3.09344
1754.0112,672.572,-3.08953
1754.0946,672.672,-3.08596
1754.178,672.772,-3.08238
1754.2608,672.872,-3.07886
1754.3436,672.972,-3.07559
1754.4264,673.072,-3.07262
1754.5098,673.172,-3.06977
1754.5926,673.272,-3.06691
1754.6766,673.372,-3.064
1754.76,673.472,-3.06099
1754.8428,673.572,-3.05803
1754.9262,673.672,-3.05536
1755.0102,673.772,-3.05297
1755.0936,673.872,-3.05044
1755.177,673.972,-3.04745
1755.2604,674.072,-3.04447
1755.3438,674.172,-3.04218
1755.4278,674.272,-3.04053
1755.5112,674.372,-3.03882
1755.5946,674.472,-3.03661
1755.6786,674.572,-3.03422
1755.762,674.672,-3.03205
1755.846,674.772,-3.03019
1755.93,674.872,-3.0286
1756.014,674.972,-3.02725
1756.098,675.072,-3.02622
1756.1814,675.172,-3.02548
1756.2648,675.272,-3.0247
1756.3488,675.372,-3.02346
1756.4328,675.472,-3.02197
1756.5168,675.572,-3.0209
1756.6002,675.672,-3.02056
1756.6842,675.772,-3.02042
1756.7682,675.872,-3.01992
1756.8522,675.972,-3.01922
1756.9362,676.072,-3.01879
1757.0202,676.172,-3.01872
1757.1048,676.272,-3.01871
1757.1882,676.372,-3.01849
1757.2722,676.472,-3.01801
1757.3562,676.572,-3.01727
1757.4396,676.672,-3.01641
1757.5236,676.772,-3.01565
1757.607,676.872,-3.01506
1757.691,676.972,-3.01445
1757.775,677.072,-3.01368
1757.8584,677.172,-3.01305
1757.9424,677.272,-3.01302
1758.0264,677.372,-3.0136
1758.1104,677.472,-3.01435
1758.1944,677.572,-3.01495
1758.2778,677.672,-3.01545
1758.3618,677.772,-3.01593
1758.4458,677.872,-3.01631
1758.5298,677.972,-3.01638
1758.6138,678.072,-3.01602
1758.6978,678.172,-3.01524
1758.7818,678.272,-3.01414
1758.8652,678.372,-3.01321
1758.9492,678.472,-3.01299
1759.0332,678.572,-3.01348
1759.1166,678.672,-3.01421
1759.2006,678.772,-3.01481
1759.2846,678.872,-3.01512
1759.3692,678.972,-3.01509
1759.4532,679.072,-3.01515
1759.5372,679.172,-3.01593
1759.6212,679.272,-3.01747
1759.7052,679.372,-3.01913
1759.7892,679.472,-3.02041
1759.8732,679.572,-3.02136
1759.9572,679.672,-3.02216
1760.0412,679.772,-3.02325
1760.1258,679.872,-3.02521
1760.2098,679.972,-3.02802
1760.2944,680.072,-3.0307
1760.3784,680.172,-3.03241
1760.463,680.272,-3.03348
1760.5464,680.372,-3.03458
1760.6304,680.472,-3.03615
1760.7144,680.572,-3.03849
1760.799,680.672,-3.04169
1760.8836,680.772,-3.04542
1760.9682,680.872,-3.04936
1761.0522,680.972,-3.05354
1761.1362,681.072,-3.05815
1761.2202,681.172,-3.06305
1761.3042,681.272,-3.06777
1761.3888,681.372,-3.07203
1761.4728,681.472,-3.07641
1761.5574,681.572,-3.08159
1761.642,681.672,-3.08732
1761.726,681.772,-3.09282
1761.8106,681.872,-3.09783
1761.8952,681.972,-3.10306
1761.9792,682.072,-3.1091
1762.0632,682.172,-3.1157
1762.1478,682.272,-3.12241
1762.2324,682.372,-3.12925
1762.3164,682.472,-3.13667
1762.401,682.572,-3.14486
1762.4856,682.672,-3.15346
1762.5702,682.772,-3.1621
1762.6548,682.872,-3.1708
1762.7394,682.972,-3.17978
1762.824,683.072,-3.18918
1762.908,683.172,-3.19913
1762.9926,683.272,-3.20964
1763.0772,683.372,-3.22056
1763.1618,683.472,-3.23172
1763.2464,683.572,-3.24321
1763.331,683.672,-3.25521
1763.4156,683.772,-3.26762
1763.4996,683.872,-3.27988
1763.5842,683.972,-3.29169
1763.6688,684.072,-3.30371
1763.7534,684.172,-3.31683
1763.838,684.272,-3.33108
1763.9226,684.372,-3.34594
1764.0078,684.472,-3.36109
1764.093,684.572,-3.37667
1764.1776,684.672,-3.39286
1764.2622,684.772,-3.4096
1764.3474,684.872,-3.42674
1764.432,684.972,-3.44432
1764.5166,685.072,-3.46247
1764.6012,685.172,-3.48123
1764.6858,685.272,-3.50038
1764.7704,685.372,-3.51968
1764.855,685.472,-3.53903
1764.9396,685.572,-3.55841
1765.0242,685.672,-3.57781
1765.1088,685.772,-3.59724
1765.1934,685.872,-3.61675
1765.278,685.972,-3.63632
1765.3626,686.072,-3.65595
1765.4472,686.172,-3.6757
1765.5324,686.272,-3.69569
1765.617,686.372,-3.71612
1765.7016,686.472,-3.73734
1765.7862,686.572,-3.75953
1765.8708,686.672,-3.78235
1765.956,686.772,-3.80535
1766.0412,686.872,-3.82825
1766.1264,686.972,-3.8509
1766.211,687.072,-3.8733
1766.2962,687.172,-3.89566
1766.3808,687.272,-3.91817
1766.4654,687.372,-3.94089
1766.55,687.472,-3.96382
1766.6352,687.572,-3.9871
1766.7198,687.672,-4.01098
1766.805,687.772,-4.03545
1766.8896,687.872,-4.05999
1766.9748,687.972,-4.08416
1767.0594,688.072,-4.1082
1767.144,688.172,-4.13256
1767.2292,688.272,-4.15736
1767.3138,688.372,-4.18233
1767.399,688.472,-4.20724
1767.4842,688.572,-4.23193
1767.5694,688.672,-4.25634
1767.654,688.772,-4.28084
1767.7386,688.872,-4.30596
1767.8232,688.972,-4.33163
1767.9078,689.072,-4.3571
1767.9924,689.172,-4.38181
1768.077,689.272,-4.40601
1768.1622,689.372,-4.43004
1768.2474,689.472,-4.45416
1768.332,689.572,-4.47856
1768.4172,689.672,-4.50333
1768.5018,689.772,-4.52836
1768.5864,689.872,-4.55355
1768.671,689.972,-4.57877
1768.7556,690.072,-4.60387
1768.8402,690.172,-4.62868
1768.9254,690.272,-4.65302
1769.0106,690.372,-4.67693
1769.0952,690.472,-4.70085
1769.1804,690.572,-4.72515
1769.265,690.672,-4.74969
1769.3502,690.772,-4.77419
1769.4348,690.872,-4.79857
1769.52,690.972,-4.82288
1769.6052,691.072,-4.84715
1769.6898,691.172,-4.87128
1769.775,691.272,-4.89517
1769.8596,691.372,-4.91884
1769.9448,691.472,-4.94231
1770.0294,691.572,-4.96554
1770.114,691.672,-4.98845
1770.1998,691.772,-5.01102
1770.285,691.872,-5.03349
1770.3696,691.972,-5.05614
1770.4548,692.072,-5.07917
1770.5394,692.172,-5.10275
1770.6252,692.272,-5.12648
1770.7098,692.372,-5.14928
1770.795,692.472,-5.17064
1770.8796,692.572,-5.19166
1770.9648,692.672,-5.21354
1771.05,692.772,-5.23629
1771.1352,692.872,-5.2593
1771.2204,692.972,-5.28205
1771.3056,693.072,-5.30418
1771.3908,693.172,-5.32557
1771.4754,693.272,-5.34684
1771.5606,693.372,-5.36868
1771.6458,693.472,-5.39083
1771.7304,693.572,-5.41255
1771.8156,693.672,-5.43361
1771.9002,693.772,-5.4546
1771.9854,693.872,-5.47596
1772.0706,693.972,-5.49723
1772.1552,694.072,-5.51778
1772.2398,694.172,-5.53762
1772.325,694.272,-5.55716
1772.4102,694.372,-5.57672
1772.4954,694.472,-5.59638
1772.5806,694.572,-5.61621
1772.6658,694.672,-5.63627
1772.751,694.772,-5.65665
1772.8362,694.872,-5.67693
1772.9214,694.972,-5.69642
1773.0072,695.072,-5.71499
1773.0924,695.172,-5.73373
1773.1782,695.272,-5.75356
1773.2634,695.372,-5.77394
1773.3486,695.472,-5.79388
1773.4338,695.572,-5.81316
1773.519,695.672,-5.8322
1773.6048,695.772,-5.85131
1773.69,695.872,-5.87047
1773.7752,695.972,-5.88958
1773.8604,696.072,-5.90854
1773.9456,696.172,-5.9272
1774.0314,696.272,-5.94577
1774.1166,696.372,-5.96476
1774.2018,696.472,-5.98439
1774.287,696.572,-6.00412
1774.3722,696.672,-6.0234
1774.458,696.772,-6.04222
1774.5432,696.872,-6.06078
1774.6284,696.972,-6.07906
1774.7136,697.072,-6.09686
1774.7994,697.172,-6.11415
1774.8846,697.272,-6.13137
1774.9704,697.372,-6.14893
1775.0556,697.472,-6.16688
1775.1408,697.572,-6.18509
1775.2266,697.672,-6.20342
1775.3118,697.772,-6.2217
1775.3976,697.872,-6.23978
1775.4828,697.972,-6.25754
1775.568,698.072,-6.27493
1775.6532,698.172,-6.29215
1775.739,698.272,-6.30954
1775.8242,698.372,-6.32716
1775.91,698.472,-6.34476
1775.9958,698.572,-6.36218
1776.0816,698.672,-6.37952
1776.1668,698.772,-6.39693
1776.252,698.872,-6.4143
1776.3378,698.972,-6.43148
1776.4236,699.072,-6.4486
1776.5094,699.172,-6.46619
1776.5946,699.272,-6.48439
1776.6798,699.372,-6.50224
1776.7656,699.472,-6.51876
1776.8514,699.572,-6.53459
1776.9372,699.672,-6.55117
1777.023,699.772,-6.56884
1777.1082,699.872,-6.58669
1777.194,699.972,-6.60402
1777.2798,700.072,-6.62082
1777.3662,700.172,-6.63731
1777.452,700.272,-6.65404
1777.5378,700.372,-6.67171
1777.6236,700.472,-6.69011
1777.7094,700.572,-6.70798
1777.7952,700.672,-6.72452
1777.881,700.772,-6.74041
1777.9668,700.872,-6.75654
1778.0526,700.972,-6.7731
1778.1384,701.072,-6.78995
1778.2242,701.172,-6.80681
1778.31,701.272,-6.8232
1778.3952,701.372,-6.8389
1778.481,701.472,-6.85431
1778.5668,701.572,-6.86994
1778.6526,701.672,-6.88595
1778.7384,701.772,-6.90233
1778.8236,701.872,-6.91894
1778.9094,701.972,-6.93548
1778.9952,702.072,-6.95167
1779.081,702.172,-6.96743
1779.1662,702.272,-6.98271
1779.2514,702.372,-6.99758
1779.3372,702.472,-7.01215
1779.423,702.572,-7.02687
1779.5094,702.672,-7.04255
1779.5952,702.772,-7.05942
1779.6816,702.872,-7.07594
1779.7668,702.972,-7.09053
1779.8526,703.072,-7.10379
1779.9378,703.172,-7.11734
1780.0236,703.272,-7.13199
1780.1094,703.372,-7.14765
1780.1952,703.472,-7.16401
1780.281,703.572,-7.18038
1780.3662,703.672,-7.19608
1780.452,703.772,-7.21126
1780.5378,703.872,-7.22651
1780.6236,703.972,-7.24193
1780.7094,704.072,-7.25711
1780.7952,704.172,-7.27179
1780.8816,704.272,-7.2863
1780.9674,704.372,-7.30105
1781.0532,704.472,-7.31637
1781.139,704.572,-7.33252
1781.2248,704.672,-7.34924
1781.3106,704.772,-7.36566
1781.3964,704.872,-7.38123
1781.4822,704.972,-7.39638
1781.5686,705.072,-7.41165
1781.6544,705.172,-7.42702
1781.7408,705.272,-7.44221
1781.8266,705.372,-7.45706
1781.913,705.472,-7.47153
1781.9988,705.572,-7.48561
1782.0846,705.672,-7.49942
1782.1704,705.772,-7.51315
1782.2562,705.872,-7.52722
1782.3426,705.972,-7.54215
1782.4284,706.072,-7.55764
1782.5148,706.172,-7.57252
1782.6006,706.272,-7.58621
1782.687,706.372,-7.59953
1782.7734,706.472,-7.61339
1782.8592,706.572,-7.62765
1782.9456,706.672,-7.64184
1783.032,706.772,-7.65577
1783.1184,706.872,-7.6696
1783.2042,706.972,-7.68346
1783.2906,707.072,-7.69744
1783.377,707.172,-7.71154
1783.4628,707.272,-7.72523
1783.5492,707.372,-7.73783
1783.635,707.472,-7.74968
1783.7214,707.572,-7.76193
1783.8078,707.672,-7.77521
1783.8942,707.772,-7.7891
1783.9806,707.872,-7.80312
1784.067,707.972,-7.8171
1784.1534,708.072,-7.83096
1784.2398,708.172,-7.84463
1784.3262,708.272,-7.85807
1784.4126,708.372,-7.8713
1784.499,708.472,-7.88446
1784.5854,708.572,-7.8976
1784.6718,708.672,-7.9104
1784.7582,708.772,-7.9225
1784.8446,708.872,-7.93442
1784.931,708.972,-7.94718
1785.0174,709.072,-7.96103
1785.1038,709.172,-7.975
1785.1902,709.272,-7.98834
1785.2772,709.372,-8.00127
1785.3636,709.472,-8.01418
1785.45,709.572,-8.0268
1785.5358,709.672,-8.03855
1785.6222,709.772,-8.0497
1785.7086,709.872,-8.06155
1785.795,709.972,-8.07483
1785.8814,710.072,-8.08838
1785.9678,710.172,-8.10087
1786.0542,710.272,-8.11246
1786.1412,710.372,-8.12396
1786.2276,710.472,-8.13577
1786.3146,710.572,-8.14782
1786.4016,710.672,-8.16007
1786.488,710.772,-8.17262
1786.5744,710.872,-8.1855
1786.6608,710.972,-8.19838
1786.7472,711.072,-8.21077
1786.8342,711.172,-8.22253
1786.9206,711.272,-8.23383
1787.0076,711.372,-8.24491
1787.0946,711.472,-8.25618
1787.1816,711.572,-8.26801
1787.2686,711.672,-8.28025
1787.355,711.772,-8.29267
1787.4414,711.872,-8.30509
1787.5284,711.972,-8.31739
1787.6154,712.072,-8.3294
1787.7024,712.172,-8.34084
1787.7894,712.272,-8.35156
1787.8764,712.372,-8.36183
1787.9628,712.472,-8.37205
1788.0498,712.572,-8.38271
1788.1362,712.672,-8.39436
1788.2232,712.772,-8.40685
1788.3102,712.872,-8.41918
1788.3972,712.972,-8.43068
1788.4842,713.072,-8.44176
1788.5706,713.172,-8.45292
1788.6576,713.272,-8.46411
1788.744,713.372,-8.47503
1788.831,713.472,-8.4857
1788.9174,713.572,-8.49645
1789.0044,713.672,-8.50746
1789.092,713.772,-8.51854
1789.179,713.872,-8.52951
1789.2666,713.972,-8.54024
1789.3536,714.072,-8.55067
1789.44,714.172,-8.56093
1789.527,714.272,-8.5713
1789.6134,714.372,-8.58193
1789.7004,714.472,-8.59274
1789.7868,714.572,-8.6036
1789.8738,714.672,-8.6142
1789.9608,714.772,-8.62425
1790.0478,714.872,-8.63415
1790.1348,714.972,-8.64468
1790.2218,715.072,-8.65602
1790.3082,715.172,-8.66756
1790.3946,715.272,-8.67879
1790.4816,715.372,-8.68964
1790.5686,715.472,-8.70014
1790.6562,715.572,-8.7104
1790.7432,715.672,-8.72061
1790.8302,715.772,-8.73094
1790.9178,715.872,-8.74161
1791.0042,715.972,-8.75256
1791.0912,716.072,-8.76326
1791.1782,716.172,-8.77324
1791.2652,716.272,-8.78295
1791.3522,716.372,-8.79308
1791.4392,716.472,-8.80357
1791.5262,716.572,-8.8138
1791.6126,716.672,-8.82355
1791.6996,716.772,-8.83336
1791.786,716.872,-8.8436
1791.873,716.972,-8.85379
1791.96,717.072,-8.86327
1792.0476,717.172,-8.8722
1792.1346,717.272,-8.88116
1792.2222,717.372,-8.89041
1792.3098,717.472,-8.89975
1792.3968,717.572,-8.90903
1792.4838,717.672,-8.9183
1792.5708,717.772,-8.92763
1792.6584,717.872,-8.93695
1792.7454,717.972,-8.94613
1792.8324,718.072,-8.95518
1792.92,718.172,-8.96427
1793.007,718.272,-8.97343
1793.0946,718.372,-8.98248
1793.1822,718.472,-8.99127
1793.2692,718.572,-9.00011
1793.3568,718.672,-9.0094
1793.4438,718.772,-9.01901
1793.5308,718.872,-9.02845
1793.6184,718.972,-9.03752
1793.706,719.072,-9.04641
1793.7936,719.172,-9.05523
1793.8812,719.272,-9.06381
1793.9688,719.372,-9.072
1794.0564,719.472,-9.08039
1794.1446,719.572,-9.08987
1794.2322,719.672,-9.10038
1794.3198,719.772,-9.11097
1794.408,719.872,-9.12087
1794.4956,719.972,-9.12987
1794.5832,720.072,-9.13789
1794.6708,720.172,-9.14535
1794.7584,720.272,-9.15277
1794.846,720.372,-9.16043
1794.9342,720.472,-9.16843
1795.0218,720.572,-9.1766
1795.1094,720.672,-9.18438
1795.197,720.772,-9.19153
1795.2846,720.872,-9.1989
1795.3728,720.972,-9.20731
1795.4604,721.072,-9.2161
1795.548,721.172,-9.22407
1795.6356,721.272,-9.23115
1795.7232,721.372,-9.23823
1795.8114,721.472,-9.24578
1795.8996,721.572,-9.2533
1795.9872,721.672,-9.2604
1796.0754,721.772,-9.26747
1796.163,721.872,-9.27504
1796.2506,721.972,-9.28306
1796.3382,722.072,-9.29113
1796.4264,722.172,-9.29883
1796.5146,722.272,-9.3057
1796.6028,722.372,-9.3116
1796.6904,722.472,-9.31714
1796.778,722.572,-9.32298
1796.8656,722.672,-9.32907
1796.9538,722.772,-9.33515
1797.0414,722.872,-9.34119
1797.129,722.972,-9.34727
1797.2172,723.072,-9.35343
1797.3054,723.172,-9.35959
1797.393,723.272,-9.36561
1797.4806,723.372,-9.37124
1797.5688,723.472,-9.37628
1797.6564,723.572,-9.38109
1797.744,723.672,-9.38631
1797.8316,723.772,-9.39201
1797.9192,723.872,-9.39773
1798.0068,723.972,-9.40324
1798.0944,724.072,-9.40879
1798.1826,724.172,-9.41464
1798.2714,724.272,-9.42074
1798.3596,724.372,-9.42694
1798.4472,724.472,-9.43261
1798.5354,724.572,-9.43691
1798.623,724.672,-9.44005
1798.7112,724.772,-9.44362
1798.8,724.872,-9.44862
1798.8882,724.972,-9.45425
1798.9764,725.072,-9.45948
1799.0646,725.172,-9.46409
1799.1528,725.272,-9.46813
1799.241,725.372,-9.47189
1799.3292,725.472,-9.47584
1799.4174,725.572,-9.48023
1799.5056,725.672,-9.48499
1799.5932,725.772,-9.48992
1799.6814,725.872,-9.49455
1799.769,725.972,-9.49842
1799.8572,726.072,-9.50169
1799.946,726.172,-9.50483
1800.0342,726.272,-9.50799
1800.1224,726.372,-9.51106
1800.2106,726.472,-9.51398
1800.2994,726.572,-9.51692
1800.3876,726.672,-9.52002
1800.4764,726.772,-9.52341
1800.5646,726.872,-9.52717
1800.6534,726.972,-9.5312
1800.7422,727.072,-9.53531
1800.8304,727.172,-9.53935
1800.918,727.272,-9.54318
1801.0062,727.372,-9.5467
1801.0944,727.472,-9.54985
1801.1826,727.572,-9.55262
1801.2714,727.672,-9.55526
1801.3596,727.772,-9.55812
1801.4484,727.872,-9.56141
1801.5372,727.972,-9.56527
1801.6254,728.072,-9.56936
1801.7136,728.172,-9.57275
1801.8024,728.272,-9.57511
1801.8906,728.372,-9.5778
1801.9794,728.472,-9.58203
1802.0682,728.572,-9.58704
1802.157,728.672,-9.59148
1802.2458,728.772,-9.59521
1802.3346,728.872,-9.59898
1802.4234,728.972,-9.60309
1802.5122,729.072,-9.60734
1802.6004,729.172,-9.61143
1802.6892,729.272,-9.61502
1802.7774,729.372,-9.61792
1802.8662,729.472,-9.62069
1802.9556,729.572,-9.6241
1803.0444,729.672,-9.62782
1803.1326,729.772,-9.63074
1803.2214,729.872,-9.63264
1803.3096,729.972,-9.63463
1803.3984,730.072,-9.63743
1803.4872,730.172,-9.64035
1803.576,730.272,-9.64267
1803.6642,730.372,-9.64492
1803.753,730.472,-9.64805
1803.8418,730.572,-9.65184
1803.9306,730.672,-9.65516
1804.0194,730.772,-9.65768
1804.1082,730.872,-9.6602
1804.197,730.972,-9.66322
1804.2858,731.072,-9.66597
1804.3746,731.172,-9.6677
1804.464,731.272,-9.66938
1804.5528,731.372,-9.67249
1804.6416,731.472,-9.67669
1804.731,731.572,-9.68021
1804.8198,731.672,-9.68242
1804.9086,731.772,-9.6845
1804.9974,731.872,-9.68728
1805.0862,731.972,-9.6902
1805.175,732.072,-9.69257
1805.2644,732.172,-9.69469
1805.3538,732.272,-9.69724
1805.4432,732.372,-9.70012
1805.532,732.472,-9.70268
1805.6208,732.572,-9.70469
1805.7102,732.672,-9.70661
1805.7996,732.772,-9.70873
1805.889,732.872,-9.71091
1805.9784,732.972,-9.71293
1806.0678,733.072,-9.71496
1806.1578,733.172,-9.71724
1806.2472,733.272,-9.7199
1806.3366,733.372,-9.72298
1806.426,733.472,-9.72621
1806.5154,733.572,-9.72899
1806.6042,733.672,-9.73095
1806.693,733.772,-9.73248
1806.7818,733.872,-9.73404
1806.8712,733.972,-9.73607
1806.9606,734.072,-9.73892
1807.05,734.172,-9.74237
1807.1388,734.272,-9.74584
1807.2282,734.372,-9.74892
1807.3176,734.472,-9.75146
1807.4064,734.572,-9.75357
1807.4958,734.672,-9.75598
1807.5858,734.772,-9.75926
1807.6758,734.872,-9.76291
1807.7652,734.972,-9.76621
1807.8552,735.072,-9.76901
1807.9446,735.172,-9.77154
1808.034,735.272,-9.77424
1808.124,735.372,-9.77776
1808.2128,735.472,-9.78212
1808.3022,735.572,-9.78612
1808.3916,735.672,-9.78877
1808.481,735.772,-9.7905
1808.5704,735.872,-9.79201
1808.6598,735.972,-9.79384
1808.7492,736.072,-9.79636
1808.8386,736.172,-9.79942
1808.928,736.272,-9.80234
1809.0174,736.372,-9.80465
1809.1068,736.472,-9.80618
1809.1968,736.572,-9.80714
1809.2868,736.672,-9.80871
1809.3768,736.772,-9.81197
1809.4662,736.872,-9.81601
1809.5562,736.972,-9.81928
1809.6462,737.072,-9.82157
1809.7356,737.172,-9.82359
1809.8256,737.272,-9.82576
1809.915,737.372,-9.828
1810.005,737.472,-9.83029
1810.095,737.572,-9.83283
1810.1844,737.672,-9.83571
1810.2738,737.772,-9.8383
1810.3638,737.872,-9.83985
1810.4538,737.972,-9.84085
1810.5438,738.072,-9.84243
1810.6332,738.172,-9.84484
1810.7232,738.272,-9.84737
1810.8132,738.372,-9.84954
1810.9038,738.472,-9.8513
1810.9938,738.572,-9.85281
1811.0838,738.672,-9.85464
1811.1738,738.772,-9.85732
1811.2638,738.872,-9.86022
1811.3538,738.972,-9.86228
1811.4444,739.072,-9.8636
1811.5344,739.172,-9.86511
1811.625,739.272,-9.8673
1811.715,739.372,-9.87
1811.805,739.472,-9.87296
1811.895,739.572,-9.87583
1811.9856,739.672,-9.8783
1812.0762,739.772,-9.88051
1812.1668,739.872,-9.88266
1812.2568,739.972,-9.88463
1812.3468,740.072,-9.88616
1812.4368,740.172,-9.88742
1812.5268,740.272,-9.88898
1812.6174,740.372,-9.89104
1812.7074,740.472,-9.89314
1812.798,740.572,-9.89487
1812.888,740.672,-9.89631
1812.9786,740.772,-9.89764
1813.0692,740.872,-9.899
1813.1592,740.972,-9.90055
1813.2498,741.072,-9.90238
1813.3404,741.172,-9.90454
1813.4304,741.272,-9.90697
1813.521,741.372,-9.90949
1813.611,741.472,-9.91184
1813.7016,741.572,-9.9136
1813.7916,741.672,-9.91461
1813.8822,741.772,-9.91568
1813.9728,741.872,-9.9177
1814.0628,741.972,-9.9203
1814.1528,742.072,-9.92264
1814.2434,742.172,-9.9247
1814.3334,742.272,-9.92715
1814.424,742.372,-9.93006
1814.514,742.472,-9.93268
1814.6046,742.572,-9.93462
1814.6946,742.672,-9.93659
1814.7852,742.772,-9.93922
1814.8758,742.872,-9.94184
1814.9664,742.972,-9.94354
1815.057,743.072,-9.94471
1815.1476,743.172,-9.94634
1815.2382,743.272,-9.94846
1815.3282,743.372,-9.95018
1815.4194,743.472,-9.9512
1815.51,743.572,-9.95229
1815.6006,743.672,-9.95408
1815.6906,743.772,-9.95652
1815.7806,743.872,-9.95937
1815.8712,743.972,-9.96216
1815.9618,744.072,-9.96435
1816.053,744.172,-9.96608
1816.1436,744.272,-9.96784
1816.2348,744.372,-9.96998
1816.3254,744.472,-9.97267
1816.4166,744.572,-9.97571
1816.5072,744.672,-9.97824
1816.5984,744.772,-9.97969
1816.6896,744.872,-9.98061
1816.7808,744.972,-9.98171
1816.8714,745.072,-9.98352
1816.9626,745.172,-9.98636
1817.0538,745.272,-9.9896
1817.145,745.372,-9.99205
1817.2356,745.472,-9.99338
1817.3262,745.572,-9.99421
1817.4168,745.672,-9.99511
1817.5074,745.772,-9.99661
1817.5986,745.872,-9.99893
1817.6898,745.972,-10.00134
1817.781,746.072,-10.00315
1817.8722,746.172,-10.00478
1817.9628,746.272,-10.00693
1818.054,746.372,-10.00926
1818.1446,746.472,-10.01085
1818.2352,746.572,-10.01172
1818.3264,746.672,-10.01291
1818.4176,746.772,-10.01477
1818.5088,746.872,-10.01643
1818.5994,746.972,-10.01731
1818.6906,747.072,-10.01809
1818.7812,747.172,-10.0195
1818.873,747.272,-10.02091
1818.9636,747.372,-10.02141
1819.0548,747.472,-10.0214
1819.1454,747.572,-10.02197
1819.236,747.672,-10.02346
1819.3272,747.772,-10.02542
1819.4184,747.872,-10.0274
1819.5096,747.972,-10.02904
1819.6014,748.072,-10.03015
1819.6926,748.172,-10.031
1819.7844,748.272,-10.03193
1819.8762,748.372,-10.03318
1819.9674,748.472,-10.0349
1820.0586,748.572,-10.03679
1820.1498,748.672,-10.03835
1820.241,748.772,-10.03957
1820.3316,748.872,-10.04089
1820.4234,748.972,-10.04249
1820.5146,749.072,-10.04416
1820.6058,749.172,-10.04579
1820.697,749.272,-10.04757
1820.7882,749.372,-10.04961
1820.8794,749.472,-10.05157
1820.9706,749.572,-10.05305
1821.0618,749.672,-10.05434
1821.1536,749.772,-10.05606
1821.2448,749.872,-10.05824
1821.3366,749.972,-10.06052
1821.4278,750.072,-10.06246
1821.5196,750.172,-10.06361
1821.6114,750.272,-10.06402
1821.7032,750.372,-10.06486
1821.795,750.472,-10.06692
1821.8862,750.572,-10.06901
1821.9774,750.672,-10.06984
1822.0692,750.772,-10.07025
1822.1604,750.872,-10.07173
1822.2516,750.972,-10.07406
1822.3428,751.072,-10.07589
1822.434,751.172,-10.07684
1822.5252,751.272,-10.07761
1822.6176,751.372,-10.07859
1822.7094,751.472,-10.07961
1822.8012,751.572,-10.08058
1822.8936,751.672,-10.0819
1822.9854,751.772,-10.08384
1823.0772,751.872,-10.08574
1823.169,751.972,-10.08675
1823.2614,752.072,-10.0871
1823.3532,752.172,-10.08755
1823.445,752.272,-10.08834
1823.5368,752.372,-10.08926
1823.6286,752.472,-10.09039
1823.721,752.572,-10.09218
1823.8128,752.672,-10.09482
1823.9046,752.772,-10.09795
1823.9964,752.872,-10.10104
1824.0882,752.972,-10.10328
1824.18,753.072,-10.10402
1824.2724,753.172,-10.10418
1824.3642,753.272,-10.10507
1824.456,753.372,-10.10652
1824.5478,753.472,-10.10749
1824.6396,753.572,-10.10781
1824.732,753.672,-10.10811
1824.8238,753.772,-10.10885
1824.9156,753.872,-10.11017
1825.0086,753.972,-10.11184
1825.101,754.072,-10.11291
1825.1934,754.172,-10.11278
1825.2852,754.272,-10.1126
1825.3776,754.372,-10.1137
1825.47,754.472,-10.11544
1825.5618,754.572,-10.11654
1825.6542,754.672,-10.11706
1825.7466,754.772,-10.1179
1825.839,754.872,-10.11931
1825.9314,754.972,-10.12086
1826.0238,755.072,-10.12223
1826.1162,755.172,-10.12322
1826.2092,755.272,-10.12387
1826.3016,755.372,-10.12473
1826.394,755.472,-10.12623
1826.4864,755.572,-10.12796
1826.5788,755.672,-10.12943
1826.6712,755.772,-10.13061
1826.7636,755.872,-10.13166
1826.8566,755.972,-10.13244
1826.949,756.072,-10.13265
1827.042,756.172,-10.13265
1827.1344,756.272,-10.13332
1827.2274,756.372,-10.13461
1827.3198,756.472,-10.13508
1827.4128,756.572,-10.13429
1827.5058,756.672,-10.13413
1827.5982,756.772,-10.13596
1827.6912,756.872,-10.13833
1827.7836,756.972,-10.13958
1827.876,757.072,-10.14018
1827.969,757.172,-10.14117
1828.0614,757.272,-10.14252
1828.1544,757.372,-10.1437
1828.2468,757.472,-10.14468
1828.3398,757.572,-10.14583
1828.4328,757.672,-10.1474
1828.5252,757.772,-10.14942
1828.6182,757.872,-10.15168
1828.7112,757.972,-10.15359
1828.8036,758.072,-10.15478
1828.8966,758.172,-10.15581
1828.9902,758.272,-10.15711
1829.0832,758.372,-10.15822
1829.1768,758.472,-10.15853
1829.2698,758.572,-10.15854
1829.3622,758.672,-10.15913
1829.4546,758.772,-10.16037
1829.5476,758.872,-10.16184
1829.6412,758.972,-10.16299
1829.7342,759.072,-10.16323
1829.8266,759.172,-10.16282
1829.9196,759.272,-10.1633
1830.0126,759.372,-10.16522
1830.1062,759.472,-10.16689
1830.1992,759.572,-10.16707
1830.2922,759.672,-10.1671
1830.3858,759.772,-10.16835
1830.4788,759.872,-10.1699
1830.5718,759.972,-10.1703
1830.6648,760.072,-10.16985
1830.7578,760.172,-10.16964
1830.8508,760.272,-10.17005
1830.9438,760.372,-10.17096
1831.0368,760.472,-10.172
1831.1298,760.572,-10.17257
1831.2228,760.672,-10.17244
1831.3164,760.772,-10.17205
1831.4094,760.872,-10.17186
1831.5024,760.972,-10.1722
1831.5954,761.072,-10.1732
1831.689,761.172,-10.17431
1831.782,761.272,-10.17498
1831.875,761.372,-10.17541
1831.968,761.472,-10.17608
1832.0616,761.572,-10.17715
1832.1546,761.672,-10.1786
1832.2476,761.772,-10.1801
1832.3412,761.872,-10.18101
1832.4348,761.972,-10.18124
1832.5284,762.072,-10.18129
1832.6214,762.172,-10.18157
1832.7144,762.272,-10.18224
1832.808,762.372,-10.18336
1832.901,762.472,-10.1848
1832.9952,762.572,-10.18633
1833.0888,762.672,-10.18747
1833.1824,762.772,-10.18785
1833.2766,762.872,-10.18821
1833.3702,762.972,-10.18951
1833.4644,763.072,-10.19134
1833.558,763.172,-10.19263
1833.6516,763.272,-10.19327
1833.7458,763.372,-10.19381
1833.8394,763.472,-10.19465
1833.933,763.572,-10.19603
1834.0266,763.672,-10.19766
1834.1202,763.772,-10.19847
1834.2138,763.872,-10.19822
1834.3074,763.972,-10.19851
1834.401,764.072,-10.20035
1834.4952,764.172,-10.20216
1834.5888,764.272,-10.20245
1834.683,764.372,-10.20257
1834.7766,764.472,-10.20434
1834.8708,764.572,-10.20683
1834.965,764.672,-10.20818
1835.0586,764.772,-10.20856
1835.1528,764.872,-10.20934
1835.2464,764.972,-10.21094
1835.34,765.072,-10.21296
1835.4336,765.172,-10.21496
1835.5272,765.272,-10.21645
1835.6208,765.372,-10.21729
1835.7144,765.472,-10.21786
1835.808,765.572,-10.21838
1835.9016,765.672,-10.21862
1835.9946,765.772,-10.21839
1836.0888,765.872,-10.21805
1836.1824,765.972,-10.218
1836.2766,766.072,-10.21807
1836.3708,766.172,-10.218
1836.4644,766.272,-10.21829
1836.558,766.372,-10.21969
1836.6522,766.472,-10.22159
1836.7464,766.572,-10.22238
1836.84,766.672,-10.22195
1836.9342,766.772,-10.22168
1837.0284,766.872,-10.22228
1837.1226,766.972,-10.22338
1837.2168,767.072,-10.22457
1837.311,767.172,-10.22556
1837.4046,767.272,-10.22621
1837.4988,767.372,-10.2268
1837.593,767.472,-10.22761
1837.6872,767.572,-10.22863
1837.7814,767.672,-10.22971
1837.8756,767.772,-10.23054
1837.9704,767.872,-10.23077
1838.0646,767.972,-10.23067
1838.1588,768.072,-10.23078
1838.253,768.172,-10.23121
1838.3478,768.272,-10.23173
1838.4432,768.372,-10.23205
1838.5374,768.472,-10.23185
1838.6316,768.572,-10.23125
1838.7258,768.672,-10.23098
1838.82,768.772,-10.2314
1838.9142,768.872,-10.23213
1839.0084,768.972,-10.23283
1839.1032,769.072,-10.23341
1839.198,769.172,-10.23389
1839.2922,769.272,-10.23445
1839.3864,769.372,-10.23522
1839.4812,769.472,-10.23598
1839.576,769.572,-10.23649
1839.6702,769.672,-10.23696
1839.765,769.772,-10.23776
1839.8592,769.872,-10.23876
1839.954,769.972,-10.23953
1840.0488,770.072,-10.24012
1840.143,770.172,-10.24098
1840.2372,770.272,-10.24207
1840.3314,770.372,-10.24276
1840.4256,770.472,-10.24294
1840.5204,770.572,-10.24337
1840.6152,770.672,-10.24439
1840.71,770.772,-10.24544
1840.8048,770.872,-10.24612
1840.8996,770.972,-10.24694
1840.9938,771.072,-10.24828
1841.0886,771.172,-10.24935
1841.1834,771.272,-10.24932
1841.2782,771.372,-10.2489
1841.3736,771.472,-10.24916
1841.4684,771.572,-10.24956
1841.5638,771.672,-10.24893
1841.6586,771.772,-10.24791
1841.7534,771.872,-10.24819
1841.8488,771.972,-10.24991
1841.9442,772.072,-10.25192
1842.039,772.172,-10.2536
1842.1338,772.272,-10.25502
1842.2286,772.372,-10.25595
1842.3234,772.472,-10.25569
1842.4182,772.572,-10.25431
1842.513,772.672,-10.25345
1842.6072,772.772,-10.25414
1842.7026,772.872,-10.25534
1842.7974,772.972,-10.256
1842.8928,773.072,-10.25636
1842.9882,773.172,-10.25687
1843.083,773.272,-10.2576
1843.1778,773.372,-10.25848
1843.2726,773.472,-10.2594
1843.3674,773.572,-10.26021
1843.4622,773.672,-10.2607
1843.557,773.772,-10.26065
1843.6512,773.872,-10.26009
1843.7466,773.972,-10.25929
1843.842,774.072,-10.25839
1843.9374,774.172,-10.25742
1844.0322,774.272,-10.25684
1844.127,774.372,-10.25765
1844.2224,774.472,-10.26001
1844.3178,774.572,-10.26248
1844.4132,774.672,-10.26404
1844.508,774.772,-10.26489
1844.6034,774.872,-10.26533
1844.6988,774.972,-10.26534
1844.7942,775.072,-10.26496
1844.8896,775.172,-10.2646
1844.985,775.272,-10.26469
1845.0804,775.372,-10.26531
1845.1758,775.472,-10.26634
1845.2718,775.572,-10.26743
1845.3672,775.672,-10.26812
1845.4626,775.772,-10.26854
1845.558,775.872,-10.26913
1845.6534,775.972,-10.27006
1845.7488,776.072,-10.27127
1845.8442,776.172,-10.27241
1845.9402,776.272,-10.27285
1846.0356,776.372,-10.27261
1846.1316,776.472,-10.2726
1846.2276,776.572,-10.27322
1846.3236,776.672,-10.27411
1846.419,776.772,-10.27493
1846.5144,776.872,-10.27555
1846.6098,776.972,-10.27588
1846.7052,777.072,-10.27572
1846.8006,777.172,-10.27513
1846.896,777.272,-10.27489
1846.9914,777.372,-10.27574
1847.0868,777.472,-10.27738
1847.1822,777.572,-10.27921
1847.2776,777.672,-10.28079
1847.373,777.772,-10.28173
1847.469,777.872,-10.28196
1847.565,777.972,-10.2816
1847.661,778.072,-10.28099
1847.7564,778.172,-10.28062
1847.8524,778.272,-10.28065
1847.9478,778.372,-10.28098
1848.0438,778.472,-10.28149
1848.1398,778.572,-10.28202
1848.2352,778.672,-10.28253
1848.3306,778.772,-10.28311
1848.4266,778.872,-10.28383
1848.5226,778.972,-10.28475
1848.618,779.072,-10.2857
1848.714,779.172,-10.28613
1848.8094,779.272,-10.28579
1848.9054,779.372,-10.28548
1849.0014,779.472,-10.2858
1849.0974,779.572,-10.28609
1849.1934,779.672,-10.28566
1849.29,779.772,-10.28497
1849.386,779.872,-10.28464
1849.4826,779.972,-10.28465
1849.5786,780.072,-10.2848
1849.6746,780.172,-10.28543
1849.7706,780.272,-10.28696
1849.8666,780.372,-10.28903
1849.9626,780.472,-10.29088
1850.0586,780.572,-10.29226
1850.1546,780.672,-10.29323
1850.2506,780.772,-10.29351
1850.3466,780.872,-10.29259
1850.4432,780.972,-10.2909
1850.5398,781.072,-10.28986
1850.6358,781.172,-10.29013
1850.7324,781.272,-10.29138
1850.8284,781.372,-10.29302
1850.925,781.472,-10.29415
1851.0216,781.572,-10.29453
1851.1182,781.672,-10.29521
1851.2148,781.772,-10.29677
1851.3114,781.872,-10.29836
1851.408,781.972,-10.29905
1851.504,782.072,-10.29839
1851.6006,782.172,-10.29642
1851.6972,782.272,-10.29484
1851.7932,782.372,-10.2951
1851.8886,782.472,-10.29611
1851.9846,782.572,-10.2964
1852.0806,782.672,-10.29638
1852.1766,782.772,-10.29696
1852.2738,782.872,-10.29801
1852.3704,782.972,-10.29898
1852.467,783.072,-10.29993
1852.563,783.172,-10.30122
1852.6596,783.272,-10.30263
1852.7562,783.372,-10.30363
1852.8528,783.472,-10.30408
1852.9488,783.572,-10.30418
1853.0454,783.672,-10.30416
1853.142,783.772,-10.30424
1853.2386,783.872,-10.30449
1853.3346,783.972,-10.30476
1853.4312,784.072,-10.30498
1853.5272,784.172,-10.30513
1853.6244,784.272,-10.30539
1853.7204,784.372,-10.30612
1853.8164,784.472,-10.30732
1853.9124,784.572,-10.30808
1854.009,784.672,-10.30791
1854.1062,784.772,-10.30775
1854.2022,784.872,-10.30833
1854.2988,784.972,-10.309
1854.3954,785.072,-10.30904
1854.492,785.172,-10.30876
1854.5892,785.272,-10.30863
1854.6858,785.372,-10.30872
1854.7824,785.472,-10.30903
1854.8784,785.572,-10.30974
1854.975,785.672,-10.311
1855.0722,785.772,-10.31189
1855.1688,785.872,-10.31123
1855.2654,785.972,-10.30987
1855.3626,786.072,-10.30971
1855.4598,786.172,-10.31076
1855.5564,786.272,-10.3118
1855.6536,786.372,-10.31262
1855.7508,786.472,-10.31379
1855.8474,786.572,-10.31519
1855.9446,786.672,-10.31606
1856.0418,786.772,-10.31625
1856.139,786.872,-10.31631
1856.2356,786.972,-10.31655
1856.3328,787.072,-10.31685
1856.43,787.172,-10.31733
1856.5266,787.272,-10.31844
1856.6238,787.372,-10.32007
1856.7204,787.472,-10.32107
1856.8176,787.572,-10.32096
1856.9148,787.672,-10.32093
1857.012,787.772,-10.32171
1857.1092,787.872,-10.32226
1857.2064,787.972,-10.32187
1857.3036,788.072,-10.3217
1857.4014,788.172,-10.32281
1857.4986,788.272,-10.32486
1857.5958,788.372,-10.32716
1857.693,788.472,-10.32912
1857.7908,788.572,-10.33034
1857.888,788.672,-10.33124
1857.9852,788.772,-10.33236
1858.0824,788.872,-10.33319
1858.1796,788.972,-10.33307
1858.2768,789.072,-10.33297
1858.3734,789.172,-10.33424
1858.4712,789.272,-10.33587
1858.5684,789.372,-10.33593
1858.6656,789.472,-10.33504
1858.7634,789.572,-10.33518
1858.8612,789.672,-10.33647
1858.9584,789.772,-10.33782
1859.0562,789.872,-10.33881
1859.1534,789.972,-10.3395
1859.2512,790.072,-10.33999
1859.349,790.172,-10.34036
1859.4468,790.272,-10.34062
1859.5446,790.372,-10.34072
1859.6424,790.472,-10.34069
1859.7402,790.572,-10.34062
1859.838,790.672,-10.34049
1859.9358,790.772,-10.34013
1860.033,790.872,-10.33969
1860.1308,790.972,-10.33977
1860.228,791.072,-10.34062
1860.3252,791.172,-10.34189
1860.423,791.272,-10.34316
1860.5208,791.372,-10.34407
1860.6186,791.472,-10.34447
1860.7164,791.572,-10.34465
1860.8142,791.672,-10.34492
1860.912,791.772,-10.34548
1861.0098,791.872,-10.34621
1861.1076,791.972,-10.34609
1861.206,792.072,-10.34453
1861.3038,792.172,-10.34274
1861.4016,792.272,-10.34192
1861.4994,792.372,-10.34193
1861.5978,792.472,-10.34239
1861.6956,792.572,-10.34315
1861.794,792.672,-10.34404
1861.8918,792.772,-10.34444
1861.9896,792.872,-10.34396
1862.0874,792.972,-10.34397
1862.1846,793.072,-10.34596
1862.2824,793.172,-10.34866
1862.3808,793.272,-10.35005
1862.4786,793.372,-10.35029
1862.577,793.472,-10.35027
1862.6748,793.572,-10.35005
1862.7732,793.672,-10.34937
1862.871,793.772,-10.34877
1862.9688,793.872,-10.34911
1863.0672,793.972,-10.3502
1863.165,794.072,-10.35128
1863.2628,794.172,-10.35189
1863.3606,794.272,-10.35177
1863.459,794.372,-10.35123
1863.5568,794.472,-10.35087
1863.6552,794.572,-10.35085
1863.753,794.672,-10.35086
1863.8508,794.772,-10.35061
1863.9486,794.872,-10.3498
1864.0464,794.972,-10.34871
1864.1448,795.072,-10.34812
1864.2432,795.172,-10.34825
1864.3416,795.272,-10.34867
1864.4394,795.372,-10.34912
1864.5378,795.472,-10.34966
1864.6362,795.572,-10.35049
1864.7346,795.672,-10.3519
1864.833,795.772,-10.3535
1864.932,795.872,-10.35389
1865.0304,795.972,-10.35286
1865.1282,796.072,-10.35227
1865.2266,796.172,-10.35295
1865.3244,796.272,-10.35366
1865.4228,796.372,-10.35374
1865.5212,796.472,-10.3541
1865.6196,796.572,-10.35522
1865.718,796.672,-10.35627
1865.8164,796.772,-10.35668
1865.9148,796.872,-10.35686
1866.0138,796.972,-10.35715
1866.1122,797.072,-10.35724
1866.2106,797.172,-10.35693
1866.309,797.272,-10.35659
1866.408,797.372,-10.35658
1866.5064,797.472,-10.35693
1866.6054,797.572,-10.35759
1866.7038,797.672,-10.35843
1866.8022,797.772,-10.35927
1866.9006,797.872,-10.35972
1866.999,797.972,-10.35954
1867.0974,798.072,-10.35901
1867.1958,798.172,-10.35864
1867.2948,798.272,-10.35913
1867.3926,798.372,-10.36098
1867.491,798.472,-10.36334
1867.5894,798.572,-10.36519
1867.6884,798.672,-10.3666
1867.7868,798.772,-10.36791
1867.8858,798.872,-10.36882
1867.9842,798.972,-10.36899
1868.0826,799.072,-10.36921
1868.1816,799.172,-10.37042
1868.28,799.272,-10.37165
1868.379,799.372,-10.37137
1868.4768,799.472,-10.37
1868.5758,799.572,-10.3688
1868.6742,799.672,-10.36825
1868.7732,799.772,-10.36843
1868.8716,799.872,-10.36918
1868.9706,799.972,-10.37017
1869.0696,800.072,-10.37127
1869.1686,800.172,-10.37236
1869.2676,800.272,-10.37312
1869.3666,800.372,-10.37311
1869.465,800.472,-10.37264
1869.564,800.572,-10.37246
1869.663,800.672,-10.37276
1869.7614,800.772,-10.37339
1869.8604,800.872,-10.37391
1869.9588,800.972,-10.37378
1870.0578,801.072,-10.37333
1870.1568,801.172,-10.37351
1870.2558,801.272,-10.37437
1870.3542,801.372,-10.37526
1870.4532,801.472,-10.37601
1870.5522,801.572,-10.37691
1870.6518,801.672,-10.378
1870.7514,801.772,-10.37906
1870.851,801.872,-10.37987
1870.95,801.972,-10.38017
1871.0496,802.072,-10.38018
1871.1486,802.172,-10.38051
1871.2476,802.272,-10.38121
1871.3466,802.372,-10.38176
1871.4462,802.472,-10.38225
1871.5452,802.572,-10.38345
1871.6442,802.672,-10.38502
1871.7432,802.772,-10.38545
1871.8428,802.872,-10.38471
1871.9418,802.972,-10.38458
1872.0414,803.072,-10.38559
1872.141,803.172,-10.38665
1872.2406,803.272,-10.38689
1872.3396,803.372,-10.38596
1872.4392,803.472,-10.38442
1872.5388,803.572,-10.38393
1872.6378,803.672,-10.3851
1872.7374,803.772,-10.38701
1872.837,803.872,-10.38858
1872.9366,803.972,-10.38871
1873.0362,804.072,-10.38734
1873.1352,804.172,-10.38586
1873.2342,804.272,-10.38522
1873.3332,804.372,-10.38556
1873.4322,804.472,-10.3864
1873.5312,804.572,-10.38651
1873.6308,804.672,-10.38546
1873.7298,804.772,-10.38431
1873.8294,804.872,-10.38396
1873.929,804.972,-10.38491
1874.028,805.072,-10.38684
1874.1276,805.172,-10.38812
1874.2266,805.272,-10.38806
1874.3262,805.372,-10.38782
1874.4258,805.472,-10.38837
1874.5248,805.572,-10.3899
1874.6244,805.672,-10.39208
1874.7234,805.772,-10.39373
1874.823,805.872,-10.39421
1874.9226,805.972,-10.39411
1875.0222,806.072,-10.39414
1875.1224,806.172,-10.39482
1875.222,806.272,-10.39623
1875.3222,806.372,-10.39747
1875.4218,806.472,-10.39793
1875.5214,806.572,-10.39789
1875.621,806.672,-10.39767
1875.7212,806.772,-10.39757
1875.8214,806.872,-10.39787
1875.921,806.972,-10.3988
1876.0212,807.072,-10.40014
1876.1208,807.172,-10.40061
1876.221,807.272,-10.39979
1876.3212,807.372,-10.39938
1876.4208,807.472,-10.40025
1876.521,807.572,-10.40095
1876.6212,807.672,-10.40065
1876.7208,807.772,-10.40053
1876.8204,807.872,-10.40132
1876.92,807.972,-10.40219
1877.0196,808.072,-10.40257
1877.1198,808.172,-10.4028
1877.22,808.272,-10.40317
1877.3196,808.372,-10.40354
1877.4198,808.472,-10.40389
1877.52,808.572,-10.40461
1877.6196,808.672,-10.40597
1877.7186,808.772,-10.40773
1877.8182,808.872,-10.40955
1877.9178,808.972,-10.41111
1878.0174,809.072,-10.41212
1878.1176,809.172,-10.4125
1878.2178,809.272,-10.41245
1878.318,809.372,-10.41271
1878.4182,809.472,-10.4136
1878.519,809.572,-10.41412
1878.6192,809.672,-10.41392
1878.7188,809.772,-10.4145
1878.8184,809.872,-10.4166
1878.9186,809.972,-10.41864
1879.0188,810.072,-10.41956
1879.119,810.172,-10.42042
1879.2192,810.272,-10.42173
1879.3194,810.372,-10.42212
1879.4202,810.472,-10.42097
1879.521,810.572,-10.41999
1879.6218,810.672,-10.42034
1879.722,810.772,-10.42118
1879.8222,810.872,-10.4218
1879.923,810.972,-10.42216
1880.0232,811.072,-10.42256
1880.1234,811.172,-10.42376
1880.2242,811.272,-10.42576
1880.325,811.372,-10.42692
1880.4258,811.472,-10.42648
1880.5266,811.572,-10.42564
1880.6274,811.672,-10.42527
1880.7276,811.772,-10.42502
1880.8278,811.872,-10.42496
1880.928,811.972,-10.426
1881.0276,812.072,-10.42813
1881.1278,812.172,-10.42954
1881.228,812.272,-10.42943
1881.3288,812.372,-10.42919
1881.4296,812.472,-10.42968
1881.5304,812.572,-10.43037
1881.6312,812.672,-10.43087
1881.7314,812.772,-10.43121
1881.8328,812.872,-10.43144
1881.933,812.972,-10.43153
1882.0332,813.072,-10.43174
1882.1334,813.172,-10.43276
1882.2342,813.272,-10.43462
1882.335,813.372,-10.43619
1882.4358,813.472,-10.43689
1882.5366,813.572,-10.43699
1882.6374,813.672,-10.43712
1882.7382,813.772,-10.43828
1882.839,813.872,-10.44029
1882.9404,813.972,-10.44137
1883.0412,814.072,-10.4411
1883.142,814.172,-10.44104
1883.2428,814.272,-10.44169
1883.3454,814.372,-10.44215
1883.448,814.472,-10.44204
1883.5428,814.572,-10.44162
1883.6406,814.672,-10.44144
1883.7672,814.772,-10.44219
1883.9256,814.872,-10.44392
