Time,Temperature,Mass
[s],[k],[mg]
0.05,300.021,3.8808
2.76,300.68,3.8806
5.76,301.331,3.8803
8.76,301.991,3.8801
11.76,302.639,3.8799
14.76,303.289,3.8796
17.76,303.945,3.8794
20.76,304.594,3.8793
23.76,305.231,3.8791
26.76,305.862,3.879
29.76,306.484,3.8788
32.76,307.107,3.8787
35.76,307.719,3.8785
38.76,308.325,3.8784
41.76,308.922,3.8782
44.76,309.506,3.8782
47.76,310.087,3.8781
50.76,310.673,3.8779
53.76,311.241,3.8779
56.76,311.796,3.8779
59.76,312.35,3.8779
62.76,312.896,3.8778
65.76,313.437,3.8776
68.76,313.969,3.8775
71.76,314.492,3.8775
74.76,315.011,3.8775
77.76,315.534,3.8774
80.76,316.033,3.8773
83.76,316.536,3.8773
86.76,317.036,3.8773
89.76,317.532,3.8772
92.76,318.034,3.8772
95.76,318.519,3.8771
98.76,319.004,3.8769
101.76,319.49,3.8769
104.76,319.976,3.8768
107.76,320.453,3.8768
110.76,320.93,3.8768
113.76,321.41,3.8767
116.76,321.882,3.8766
119.76,322.357,3.8766
122.76,322.834,3.8765
125.76,323.307,3.8764
128.76,323.785,3.8764
131.76,324.265,3.8763
134.76,324.745,3.8762
137.76,325.223,3.8762
140.76,325.7,3.8761
143.76,326.182,3.8761
146.76,326.668,3.8759
149.76,327.155,3.876
152.76,327.646,3.8758
155.76,328.131,3.8757
158.76,328.627,3.8756
161.76,329.118,3.8756
164.76,329.612,3.8756
167.76,330.109,3.8755
170.76,330.603,3.8754
173.76,331.104,3.8753
176.76,331.602,3.8754
179.76,332.105,3.8753
182.76,332.616,3.8752
185.76,333.127,3.8751
188.76,333.644,3.8751
191.76,334.152,3.8751
194.76,334.657,3.875
197.76,335.177,3.8749
200.76,335.697,3.8749
203.76,336.208,3.8749
206.76,336.731,3.8748
209.76,337.248,3.8747
212.76,337.775,3.8747
215.76,338.299,3.8747
218.76,338.824,3.8746
221.76,339.349,3.8746
224.76,339.872,3.8745
227.76,340.4,3.8745
230.76,340.929,3.8744
233.76,341.455,3.8744
236.76,341.984,3.8744
239.76,342.509,3.8744
242.76,343.036,3.8745
245.76,343.557,3.8744
248.76,344.084,3.8745
251.76,344.615,3.8745
254.76,345.141,3.8744
257.76,345.667,3.8743
260.76,346.187,3.8743
263.76,346.713,3.8742
266.76,347.24,3.8742
269.76,347.763,3.8743
272.76,348.277,3.8742
275.76,348.802,3.8742
278.76,349.332,3.8742
281.76,349.851,3.8742
284.76,350.367,3.8742
287.76,350.878,3.8742
290.76,351.394,3.8742
293.76,351.913,3.8743
296.76,352.429,3.8742
299.76,352.944,3.8742
302.76,353.463,3.8742
305.76,353.969,3.8742
308.76,354.486,3.8742
311.76,354.992,3.8741
314.76,355.51,3.8742
317.76,356.015,3.8742
320.76,356.524,3.8742
323.76,357.037,3.8742
326.76,357.536,3.8742
329.76,358.047,3.8742
332.76,358.57,3.8741
335.76,359.065,3.8741
338.76,359.577,3.8741
341.76,360.077,3.8741
344.76,360.59,3.8742
347.76,361.092,3.8743
350.76,361.601,3.8744
353.76,362.106,3.8744
356.76,362.61,3.8745
359.76,363.114,3.8745
362.76,363.622,3.8744
365.76,364.125,3.8744
368.76,364.634,3.8745
371.76,365.137,3.8744
374.76,365.651,3.8744
377.76,366.163,3.8745
380.76,366.671,3.8745
383.76,367.173,3.8745
386.76,367.678,3.8745
389.76,368.184,3.8745
392.76,368.69,3.8745
395.76,369.195,3.8745
398.76,369.698,3.8745
401.76,370.206,3.8746
404.76,370.713,3.8746
407.76,371.229,3.8744
410.76,371.723,3.8745
413.76,372.236,3.8745
416.76,372.737,3.8745
419.76,373.247,3.8744
422.76,373.754,3.8745
425.76,374.262,3.8744
428.76,374.778,3.8744
431.76,375.285,3.8744
434.76,375.797,3.8745
437.76,376.307,3.8745
440.76,376.818,3.8744
443.76,377.326,3.8744
446.76,377.827,3.8744
449.76,378.342,3.8743
452.76,378.852,3.8743
455.76,379.365,3.8742
458.76,379.873,3.8742
461.76,380.38,3.8743
464.76,380.891,3.8742
467.76,381.405,3.8742
470.76,381.914,3.8742
473.76,382.432,3.8741
476.76,382.937,3.8742
479.76,383.448,3.8741
482.76,383.958,3.874
485.76,384.464,3.874
488.76,384.967,3.874
491.76,385.483,3.8739
494.76,385.998,3.8738
497.76,386.507,3.8739
500.76,387.016,3.8738
503.76,387.521,3.8739
506.76,388.031,3.8737
509.76,388.535,3.8736
512.76,389.047,3.8736
515.76,389.558,3.8735
518.76,390.061,3.8735
521.76,390.567,3.8735
524.76,391.074,3.8734
527.76,391.585,3.8733
530.76,392.095,3.8732
533.76,392.604,3.8731
536.76,393.11,3.873
539.76,393.612,3.873
542.76,394.116,3.873
545.76,394.626,3.8729
548.76,395.128,3.8729
551.76,395.633,3.8728
554.76,396.147,3.8726
557.76,396.659,3.8725
560.76,397.169,3.8724
563.76,397.671,3.8723
566.76,398.178,3.8722
569.76,398.683,3.872
572.76,399.189,3.872
575.76,399.699,3.872
578.76,400.207,3.8719
581.76,400.709,3.8719
584.76,401.216,3.8717
587.76,401.726,3.8716
590.76,402.224,3.8715
593.76,402.729,3.8714
596.76,403.235,3.8713
599.76,403.74,3.8712
602.76,404.25,3.871
605.76,404.758,3.8709
608.76,405.259,3.8708
611.76,405.762,3.8707
614.76,406.269,3.8705
617.76,406.777,3.8705
620.76,407.276,3.8704
623.76,407.784,3.8703
626.76,408.286,3.8702
629.76,408.793,3.8701
632.76,409.294,3.8698
635.76,409.794,3.8697
638.76,410.308,3.8696
641.76,410.809,3.8695
644.76,411.308,3.8693
647.76,411.818,3.8691
650.76,412.325,3.8691
653.76,412.822,3.869
656.76,413.328,3.8689
659.76,413.833,3.8687
662.76,414.339,3.8686
665.76,414.841,3.8685
668.76,415.343,3.8683
671.76,415.853,3.8684
674.76,416.359,3.8683
677.76,416.858,3.8681
680.76,417.362,3.868
683.76,417.867,3.8678
686.76,418.375,3.8677
689.76,418.881,3.8675
692.76,419.383,3.8675
695.76,419.894,3.8674
698.76,420.401,3.8673
701.76,420.899,3.8671
704.76,421.405,3.867
707.76,421.908,3.8668
710.76,422.412,3.8667
713.76,422.917,3.8666
716.76,423.415,3.8665
719.76,423.924,3.8664
722.76,424.426,3.8662
725.76,424.933,3.8661
728.76,425.44,3.866
731.76,425.94,3.8658
734.76,426.442,3.8656
737.76,426.951,3.8655
740.76,427.45,3.8654
743.76,427.956,3.8653
746.76,428.459,3.8652
749.76,428.963,3.865
752.76,429.468,3.8649
755.76,429.975,3.8648
758.76,430.481,3.8647
761.76,430.984,3.8645
764.76,431.49,3.8643
767.76,431.995,3.8642
770.76,432.501,3.8642
773.76,433.003,3.8641
776.76,433.504,3.8639
779.76,434.012,3.8637
782.76,434.514,3.8637
785.76,435.018,3.8635
788.76,435.524,3.8634
791.76,436.027,3.8633
794.76,436.532,3.8631
797.76,437.034,3.863
800.76,437.535,3.863
803.76,438.039,3.8628
806.76,438.543,3.8627
809.76,439.046,3.8626
812.76,439.548,3.8624
815.76,440.049,3.8623
818.76,440.551,3.8622
821.76,441.052,3.862
824.76,441.563,3.862
827.76,442.064,3.8618
830.76,442.57,3.8617
833.76,443.071,3.8616
836.76,443.57,3.8614
839.76,444.077,3.8613
842.76,444.578,3.8612
845.76,445.077,3.8611
848.76,445.578,3.8611
851.76,446.079,3.861
854.76,446.59,3.8609
857.76,447.087,3.8608
860.76,447.588,3.8607
863.76,448.089,3.8606
866.76,448.596,3.8605
869.76,449.092,3.8603
872.76,449.595,3.8603
875.76,450.097,3.8602
878.76,450.598,3.8601
881.76,451.101,3.8599
884.76,451.598,3.8598
887.76,452.1,3.8597
890.76,452.608,3.8596
893.76,453.115,3.8595
896.76,453.615,3.8594
899.76,454.116,3.8593
902.76,454.621,3.8592
905.76,455.118,3.8591
908.76,455.622,3.8591
911.76,456.12,3.8591
914.76,456.625,3.8589
917.76,457.12,3.8588
920.76,457.625,3.8587
923.76,458.128,3.8587
926.76,458.631,3.8586
929.76,459.131,3.8585
932.76,459.636,3.8584
935.76,460.137,3.8583
938.76,460.644,3.8582
941.76,461.145,3.8582
944.76,461.641,3.8581
947.76,462.145,3.8579
950.76,462.646,3.858
953.76,463.149,3.858
956.76,463.646,3.8579
959.76,464.146,3.8579
962.76,464.648,3.8578
965.76,465.149,3.8577
968.76,465.649,3.8577
971.76,466.155,3.8576
974.76,466.654,3.8576
977.76,467.157,3.8575
980.76,467.661,3.8573
983.76,468.163,3.8573
986.76,468.663,3.8572
989.76,469.165,3.8571
992.76,469.664,3.8572
995.76,470.163,3.8571
998.76,470.668,3.8571
1001.76,471.17,3.8571
1004.76,471.675,3.857
1007.76,472.178,3.8569
1010.76,472.68,3.8569
1013.76,473.179,3.8569
1016.76,473.675,3.8569
1019.76,474.178,3.8568
1022.76,474.673,3.8567
1025.76,475.173,3.8567
1028.76,475.679,3.8567
1031.76,476.174,3.8566
1034.76,476.68,3.8566
1037.76,477.179,3.8566
1040.76,477.679,3.8566
1043.76,478.178,3.8565
1046.76,478.678,3.8565
1049.76,479.181,3.8565
1052.76,479.681,3.8564
1055.76,480.186,3.8564
1058.76,480.682,3.8564
1061.76,481.187,3.8564
1064.76,481.681,3.8563
1067.76,482.186,3.8563
1070.76,482.682,3.8562
1073.76,483.185,3.8563
1076.76,483.685,3.8562
1079.76,484.189,3.8563
1082.76,484.693,3.8562
1085.76,485.188,3.8561
1088.76,485.692,3.8561
1091.76,486.19,3.856
1094.76,486.693,3.8561
1097.76,487.195,3.8561
1100.76,487.697,3.8561
1103.76,488.198,3.8561
1106.76,488.702,3.856
1109.76,489.203,3.8559
1112.76,489.703,3.8559
1115.76,490.201,3.856
1118.76,490.707,3.856
1121.76,491.198,3.8559
1124.76,491.702,3.8559
1127.76,492.202,3.8559
1130.76,492.707,3.856
1133.76,493.205,3.8558
1136.76,493.706,3.8558
1139.76,494.207,3.8559
1142.76,494.706,3.8557
1145.76,495.205,3.8558
1148.76,495.706,3.8558
1151.76,496.206,3.8558
1154.76,496.702,3.8557
1157.76,497.205,3.8557
1160.76,497.702,3.8558
1163.76,498.203,3.8558
1166.76,498.704,3.8558
1169.76,499.204,3.8558
1172.76,499.7,3.8556
1175.76,500.206,3.8557
1178.76,500.701,3.8557
1181.76,501.197,3.8557
1184.76,501.697,3.8557
1187.76,502.198,3.8556
1190.76,502.7,3.8556
1193.76,503.201,3.8556
1196.76,503.7,3.8555
1199.76,504.2,3.8555
1202.76,504.704,3.8555
1205.76,505.205,3.8555
1208.76,505.7,3.8555
1211.76,506.201,3.8555
1214.76,506.698,3.8554
1217.76,507.204,3.8554
1220.76,507.702,3.8554
1223.76,508.198,3.8553
1226.76,508.698,3.8553
1229.76,509.198,3.8553
1232.76,509.693,3.8552
1235.76,510.19,3.8552
1238.76,510.689,3.8552
1241.76,511.191,3.8552
1244.76,511.695,3.8551
1247.76,512.192,3.855
1250.76,512.693,3.8549
1253.76,513.186,3.8548
1256.76,513.683,3.8548
1259.76,514.179,3.8547
1262.76,514.681,3.8547
1265.76,515.176,3.8547
1268.76,515.681,3.8546
1271.76,516.178,3.8546
1274.76,516.678,3.8545
1277.76,517.176,3.8543
1280.76,517.674,3.8542
1283.76,518.17,3.8542
1286.76,518.671,3.854
1289.76,519.168,3.8539
1292.76,519.664,3.8538
1295.76,520.163,3.8538
1298.76,520.663,3.8537
1301.76,521.158,3.8535
1304.76,521.66,3.8533
1307.76,522.164,3.8532
1310.76,522.662,3.8531
1313.76,523.16,3.8529
1316.76,523.656,3.8528
1319.76,524.157,3.8527
1322.76,524.657,3.8525
1325.76,525.151,3.8522
1328.76,525.651,3.8519
1331.76,526.148,3.8516
1334.76,526.646,3.8514
1337.76,527.145,3.8512
1340.76,527.643,3.8509
1343.76,528.135,3.8505
1346.76,528.634,3.8501
1349.76,529.139,3.8496
1352.76,529.632,3.8492
1355.76,530.129,3.8487
1358.76,530.63,3.8482
1361.76,531.125,3.8476
1364.76,531.628,3.847
1367.76,532.125,3.8464
1370.76,532.626,3.8456
1373.76,533.121,3.8448
1376.76,533.623,3.8441
1379.76,534.121,3.8432
1382.76,534.621,3.8422
1385.76,535.122,3.8412
1388.76,535.62,3.8401
1391.76,536.112,3.839
1394.76,536.615,3.8377
1397.76,537.114,3.8364
1400.76,537.617,3.8351
1403.76,538.118,3.8337
1406.76,538.615,3.8321
1409.76,539.114,3.8305
1412.76,539.615,3.8288
1415.76,540.115,3.8271
1418.76,540.611,3.8255
1421.76,541.112,3.8236
1424.76,541.609,3.8215
1427.76,542.102,3.8194
1430.76,542.608,3.8173
1433.76,543.101,3.8151
1436.76,543.596,3.8127
1439.76,544.1,3.8104
1442.76,544.593,3.808
1445.76,545.094,3.8053
1448.76,545.588,3.8027
1451.76,546.086,3.8
1454.76,546.588,3.7973
1457.76,547.092,3.7945
1460.76,547.581,3.7915
1463.76,548.078,3.7886
1466.76,548.582,3.7856
1469.76,549.071,3.7825
1472.76,549.57,3.7795
1475.76,550.071,3.7765
1478.76,550.571,3.7734
1481.76,551.065,3.7703
1484.76,551.561,3.7672
1487.76,552.058,3.7641
1490.76,552.55,3.7611
1493.76,553.055,3.758
1496.76,553.546,3.755
1499.76,554.047,3.7518
1502.76,554.551,3.7488
1505.76,555.042,3.7457
1508.76,555.542,3.7426
1511.76,556.035,3.7395
1514.76,556.536,3.7363
1517.76,557.034,3.733
1520.76,557.526,3.7297
1523.76,558.027,3.7263
1526.76,558.522,3.7228
1529.76,559.018,3.7191
1532.76,559.518,3.7154
1535.76,560.015,3.7116
1538.76,560.518,3.7077
1541.76,561.018,3.7035
1544.76,561.511,3.6993
1547.76,562.008,3.6949
1550.76,562.506,3.6903
1553.76,563,3.6855
1556.76,563.504,3.6805
1559.76,563.996,3.6753
1562.76,564.495,3.6698
1565.76,564.994,3.6641
1568.76,565.489,3.658
1571.76,565.991,3.6517
1574.76,566.487,3.6451
1577.76,566.99,3.6382
1580.76,567.489,3.6307
1583.76,567.986,3.6229
1586.76,568.49,3.6145
1589.76,568.989,3.6057
1592.76,569.486,3.5964
1595.76,569.99,3.5865
1598.76,570.487,3.576
1601.76,570.982,3.5646
1604.76,571.484,3.5525
1607.76,571.985,3.5395
1610.76,572.487,3.5254
1613.76,572.988,3.51
1616.76,573.49,3.4932
1619.76,573.987,3.4748
1622.76,574.489,3.4549
1625.76,574.994,3.4328
1628.76,575.488,3.4088
1631.76,575.989,3.3829
1634.76,576.483,3.3552
1637.76,576.983,3.3264
1640.76,577.479,3.2966
1643.76,577.974,3.2666
1646.76,578.461,3.2366
1649.76,578.956,3.2071
1652.76,579.44,3.1781
1655.76,579.933,3.1497
1658.76,580.425,3.1222
1661.76,580.918,3.0952
1664.76,581.41,3.0686
1667.76,581.904,3.0424
1670.76,582.4,3.0171
1673.76,582.889,2.992
1676.76,583.382,2.9672
1679.76,583.878,2.9427
1682.76,584.37,2.918
1685.76,584.871,2.8932
1688.76,585.391,2.8674
1691.76,585.864,2.8397
1694.76,586.354,2.8139
1697.76,586.832,2.7908
1700.76,587.32,2.7685
1703.76,587.81,2.7461
1706.76,588.3,2.7234
1709.76,588.791,2.7001
1712.76,589.29,2.6762
1715.76,589.785,2.652
1718.76,590.275,2.6277
1721.76,590.771,2.6032
1724.76,591.269,2.5781
1727.76,591.783,2.5517
1730.76,592.264,2.5251
1733.76,592.752,2.4981
1736.76,593.24,2.4715
1739.76,593.733,2.4446
1742.76,594.221,2.4172
1745.76,594.722,2.3882
1748.76,595.221,2.3584
1751.76,595.72,2.3276
1754.76,596.211,2.2964
1757.76,596.705,2.2646
1760.76,597.186,2.2331
1763.76,597.684,2.2
1766.76,598.17,2.1673
1769.76,598.658,2.134
1772.76,599.149,2.0999
1775.76,599.649,2.0648
1778.76,600.136,2.03
1781.76,600.63,1.9944
1784.76,601.125,1.9584
1787.76,601.627,1.9218
1790.76,602.129,1.885
1793.76,602.626,1.8485
1796.76,603.124,1.8119
1799.76,603.629,1.7748
1802.76,604.13,1.738
1805.76,604.639,1.7007
1808.76,605.136,1.6642
1811.76,605.65,1.6264
1814.76,606.151,1.5896
1817.76,606.663,1.552
1820.76,607.18,1.5141
1823.76,607.693,1.4764
1826.76,608.201,1.4391
1829.76,608.742,1.3993
1832.76,609.246,1.3624
1835.76,609.751,1.3253
1838.76,610.26,1.2879
1841.76,610.773,1.2511
1844.76,611.28,1.2157
1847.76,611.782,1.1819
1850.76,612.282,1.1495
1853.76,612.78,1.1184
1856.76,613.277,1.0886
1859.76,613.776,1.0598
1862.76,614.27,1.0327
1865.76,614.764,1.0062
1868.76,615.26,0.981
1871.76,615.753,0.9577
1874.76,616.24,0.9363
1877.76,616.738,0.916
1880.76,617.229,0.8975
1883.76,617.721,0.8804
1886.76,618.209,0.8648
1889.76,618.706,0.8502
1892.76,619.196,0.8363
1895.76,619.689,0.8228
1898.76,620.175,0.8098
1901.76,620.668,0.7971
1904.76,621.159,0.7849
1907.76,621.65,0.7731
1910.76,622.144,0.7616
1913.76,622.638,0.7505
1916.76,623.129,0.7398
1919.76,623.618,0.7296
1922.76,624.112,0.7196
1925.76,624.609,0.71
1928.76,625.103,0.7007
1931.76,625.599,0.6917
1934.76,626.093,0.6831
1937.76,626.584,0.6747
1940.76,627.082,0.6665
1943.76,627.579,0.6587
1946.76,628.074,0.6511
1949.76,628.562,0.6438
1952.76,629.063,0.6366
1955.76,629.561,0.6297
1958.76,630.056,0.6231
1961.76,630.556,0.6167
1964.76,631.047,0.6105
1967.76,631.544,0.6046
1970.76,632.041,0.5988
1973.76,632.536,0.5931
1976.76,633.036,0.5877
1979.76,633.531,0.5824
1982.76,634.027,0.5772
1985.76,634.525,0.5722
1988.76,635.02,0.5672
1991.76,635.52,0.5624
1994.76,636.013,0.5578
1997.76,636.51,0.5533
2000.76,637.001,0.549
2003.76,637.498,0.5446
2006.76,637.989,0.5405
2009.76,638.484,0.5364
2012.76,638.979,0.5325
2015.76,639.474,0.5287
2018.76,639.967,0.5249
2021.76,640.464,0.5212
2024.76,640.953,0.5175
2027.76,641.449,0.5141
2030.76,641.945,0.5108
2033.76,642.441,0.5074
2036.76,642.935,0.5041
2039.76,643.428,0.5012
2042.76,643.919,0.4983
2045.76,644.417,0.4952
2048.76,644.912,0.4922
2051.76,645.407,0.4894
2054.76,645.899,0.4865
2057.76,646.394,0.4838
2060.76,646.883,0.4812
2063.76,647.377,0.4786
2066.76,647.873,0.4761
2069.76,648.364,0.4736
2072.76,648.863,0.4712
2075.76,649.359,0.4689
2078.76,649.854,0.4665
2081.76,650.345,0.4641
2084.76,650.842,0.462
2087.76,651.337,0.4598
2090.76,651.83,0.4577
2093.76,652.325,0.4556
2096.76,652.821,0.4536
2099.76,653.313,0.4517
2102.76,653.806,0.4498
2105.76,654.299,0.448
2108.76,654.797,0.4461
2111.76,655.293,0.4443
2114.76,655.792,0.4426
2117.76,656.285,0.4407
2120.76,656.784,0.4391
2123.76,657.277,0.4375
2126.76,657.773,0.4359
2129.76,658.27,0.4342
2132.76,658.764,0.4326
2135.76,659.258,0.4311
2138.76,659.749,0.4296
2141.76,660.249,0.4281
2144.76,660.74,0.4267
2147.76,661.233,0.4254
2150.76,661.732,0.4239
2153.76,662.224,0.4226
2156.76,662.72,0.4213
2159.76,663.215,0.42
2162.76,663.716,0.4188
2165.76,664.208,0.4174
2168.76,664.707,0.4163
2171.76,665.2,0.4152
2174.76,665.694,0.414
2177.76,666.186,0.4128
2180.76,666.686,0.4117
2183.76,667.181,0.4108
2186.76,667.672,0.4097
2189.76,668.173,0.4088
2192.76,668.664,0.4078
2195.76,669.163,0.4068
2198.76,669.659,0.4059
2201.76,670.153,0.4049
2204.76,670.647,0.4041
2207.76,671.141,0.4032
2210.76,671.637,0.4024
2213.76,672.135,0.4016
2216.76,672.627,0.4008
2219.76,673.123,0.4
2222.76,673.617,0.3993
2225.76,674.113,0.3985
2228.76,674.61,0.3977
2231.76,675.103,0.3971
2234.76,675.595,0.3965
2237.76,676.095,0.3958
2240.76,676.592,0.3951
2243.76,677.089,0.3945
2246.76,677.582,0.394
2249.76,678.08,0.3936
2252.76,678.576,0.3931
2255.76,679.074,0.3927
2258.76,679.565,0.3923
2261.76,680.067,0.392
2264.76,680.559,0.3917
2267.76,681.057,0.3914
2270.76,681.555,0.3913
2273.76,682.048,0.3911
2276.76,682.545,0.391
2279.76,683.036,0.391
2282.76,683.536,0.391
2285.76,684.031,0.3909
2288.76,684.525,0.391
2291.76,685.024,0.3909
2294.76,685.516,0.3909
2297.76,686.006,0.3909
2300.76,686.503,0.3909
2303.76,686.998,0.3909
2306.76,687.493,0.3909
2309.76,687.989,0.3908
2312.76,688.484,0.3908
2315.76,688.977,0.3908
2318.76,689.47,0.3909
2321.76,689.966,0.3905
2324.76,690.459,0.3902
2327.76,690.962,0.3903
2330.76,691.455,0.3903
2333.76,691.951,0.3903
2336.76,692.445,0.3902
2339.76,692.937,0.3903
2342.76,693.435,0.3903
2345.76,693.935,0.3903
2348.76,694.429,0.3902
2351.76,694.921,0.3902
2354.76,695.418,0.3902
2357.76,695.917,0.3902
2360.76,696.41,0.3903
2363.76,696.901,0.3902
2366.76,697.398,0.3902
2369.76,697.897,0.3903
2372.76,698.389,0.3903
2375.76,698.885,0.3903
2378.76,699.386,0.3903
2381.76,699.878,0.3904
2384.76,700.37,0.3903
2387.76,700.866,0.3903
2390.76,701.364,0.3903
2393.76,701.86,0.3903
2396.76,702.349,0.3903
2399.76,702.844,0.3902
2402.76,703.341,0.3902
2405.76,703.836,0.3902
2408.76,704.334,0.3902
2411.76,704.826,0.3903
2414.76,705.32,0.3903
2417.76,705.814,0.3903
2420.76,706.312,0.3903
2423.76,706.808,0.3903
2426.76,707.303,0.3903
2429.76,707.796,0.3902
2432.76,708.293,0.3903
2435.76,708.79,0.3903
2438.76,709.28,0.3903
2441.76,709.778,0.3903
2444.76,710.277,0.3903
2447.76,710.772,0.3903
2450.76,711.266,0.3904
2453.76,711.764,0.3904
2456.76,712.258,0.3903
2459.76,712.754,0.3903
2462.76,713.243,0.3904
2465.76,713.741,0.3904
2468.76,714.236,0.3903
2471.76,714.733,0.3904
2474.76,715.229,0.3905
2477.76,715.725,0.3904
2480.76,716.224,0.3904
2483.76,716.72,0.3904
2486.76,717.212,0.3905
2489.76,717.706,0.3904
2492.76,718.209,0.3905
2495.76,718.698,0.3905
2498.76,719.196,0.3905
2501.76,719.691,0.3905
2504.76,720.187,0.3906
2507.76,720.682,0.3907
2510.76,721.175,0.3907
2513.76,721.668,0.3907
2516.76,722.168,0.3907
2519.76,722.662,0.3907
2522.76,723.156,0.3906
2525.76,723.655,0.3907
2528.76,724.151,0.3907
2531.76,724.642,0.3908
2534.76,725.138,0.3908
2537.76,725.633,0.3908
2540.76,726.132,0.3908
2543.76,726.628,0.3908
2546.76,727.124,0.3909
2549.76,727.619,0.3908
2552.76,728.114,0.3909
2555.76,728.61,0.391
2558.76,729.098,0.391
2561.76,729.59,0.391
2564.76,730.093,0.391
2567.76,730.588,0.391
2570.76,731.082,0.3911
2573.76,731.578,0.3911
2576.76,732.077,0.3912
2579.76,732.57,0.3911
2582.76,733.068,0.3912
2585.76,733.564,0.3912
2588.76,734.059,0.3912
2591.76,734.552,0.3912
2594.76,735.046,0.3913
2597.76,735.548,0.3913
2600.76,736.038,0.3913
2603.76,736.532,0.3913
2606.76,737.025,0.3913
2609.76,737.518,0.3913
2612.76,738.018,0.3914
2615.76,738.512,0.3914
2618.76,739.008,0.3914
2621.76,739.508,0.3915
2624.76,740.001,0.3915
2627.76,740.496,0.3915
2630.76,740.988,0.3916
2633.76,741.484,0.3916
2636.76,741.977,0.3916
2639.76,742.471,0.3916
2642.76,742.968,0.3916
2645.76,743.46,0.3918
2648.76,743.958,0.3917
2651.76,744.451,0.3918
2654.76,744.949,0.3918
2657.76,745.443,0.3918
2660.76,745.937,0.3918
2663.76,746.43,0.3918
2666.76,746.925,0.3919
2669.76,747.422,0.392
2672.76,747.915,0.3921
2675.76,748.42,0.392
2678.76,748.908,0.392
2681.76,749.403,0.392
2684.76,749.903,0.3921
2687.76,750.403,0.3922
2690.76,750.894,0.3922
2693.76,751.391,0.3922
2696.76,751.885,0.3922
2699.76,752.379,0.3923
2702.76,752.875,0.3922
2705.76,753.369,0.3922
2708.76,753.863,0.3923
2711.76,754.362,0.3923
2714.76,754.854,0.3923
2717.76,755.353,0.3924
2720.76,755.848,0.3924
2723.76,756.341,0.3924
2726.76,756.838,0.3925
2729.76,757.335,0.3924
2732.76,757.828,0.3925
2735.76,758.325,0.3925
2738.76,758.821,0.3925
2741.76,759.32,0.3925
2744.76,759.811,0.3926
2747.76,760.307,0.3926
2750.76,760.798,0.3926
2753.76,761.295,0.3927
2756.76,761.79,0.3926
2759.76,762.285,0.3926
2762.76,762.782,0.3927
2765.76,763.274,0.3927
2768.76,763.767,0.3927
2771.76,764.265,0.3928
2774.76,764.759,0.3928
2777.76,765.256,0.3928
2780.76,765.746,0.3929
2783.76,766.241,0.3929
2786.76,766.736,0.3929
2789.76,767.233,0.3929
2792.76,767.728,0.3929
2795.76,768.225,0.3929
2798.76,768.72,0.3928
2801.76,769.218,0.3929
2804.76,769.713,0.393
2807.76,770.21,0.3932
2810.76,770.704,0.3932
2813.76,771.197,0.3931
2816.76,771.696,0.3931
2819.76,772.189,0.3931
2822.76,772.689,0.3932
2825.76,773.183,0.3933
2828.76,773.675,0.3931
2831.76,774.167,0.3933
2834.76,774.663,0.3933
2837.76,775.163,0.3933
2840.76,775.657,0.3929
2843.76,776.152,0.3933
2846.76,776.649,0.3936
2849.76,777.142,0.3934
2852.76,777.634,0.3934
2855.76,778.132,0.3934
2858.76,778.628,0.3934
2861.76,779.124,0.3935
2864.76,779.62,0.3935
2867.76,780.115,0.3935
2870.76,780.611,0.3935
2873.76,781.105,0.3935
2876.76,781.602,0.3935
2879.76,782.099,0.3935
2882.76,782.591,0.3935
2885.76,783.089,0.3936
2888.76,783.582,0.3936
2891.76,784.079,0.3936
2894.76,784.572,0.3936
2897.76,785.07,0.3937
2900.76,785.559,0.3938
2903.76,786.059,0.3937
2906.76,786.554,0.3937
2909.76,787.053,0.3938
2912.76,787.547,0.3938
2915.76,788.042,0.3938
2918.76,788.54,0.3938
2921.76,789.037,0.3938
2924.76,789.527,0.3939
2927.76,790.025,0.3939
2930.76,790.517,0.3939
2933.76,791.018,0.3939
2936.76,791.51,0.3939
2939.76,792.006,0.3939
2942.76,792.495,0.3939
2945.76,792.993,0.394
2948.76,793.489,0.394
2951.76,793.988,0.3939
2954.76,794.482,0.394
2957.76,794.978,0.3941
2960.76,795.471,0.394
2963.76,795.968,0.394
2966.76,796.461,0.3941
2969.76,796.957,0.3941
2972.76,797.456,0.3941
2975.76,797.944,0.394
2978.76,798.44,0.3941
2981.76,798.939,0.3942
2984.76,799.43,0.3941
2987.76,799.927,0.3941
2990.76,800.423,0.3941
2993.76,800.913,0.3942
2996.76,801.409,0.3943
2999.76,801.904,0.3942
3002.76,802.399,0.3942
3005.76,802.895,0.3943
3008.76,803.39,0.3943
3011.76,803.886,0.3943
